Data from c2t_JH05_50uM_Absorbance_11-14-56-045.txt Node
Date: Thu Dec 21 11:14:56 GMT 2017
User: egn-admin
Spectrometer: OFX00224
Trigger mode: 0
Integration Time (sec): 5.000000E-2
Scans to average: 1
Nonlinearity correction enabled: false
Boxcar width: 0
Storing dark spectrum: false
XAxis mode: Wavelengths
Number of Pixels in Spectrum: 2136
>>>>>Begin Spectral Data<<<<<
154.91	0.04
155.289	0.05
155.669	-0.02
156.048	1.4
156.428	-0.6
156.807	0.26
157.186	-0
157.566	-0.15
157.945	0.88
158.325	-0.74
158.704	-0
159.083	-0
159.462	0.02
159.842	-0
160.221	-0.18
160.6	-0.03
160.979	-0.51
161.359	-0.1
161.738	0.34
162.117	-0.11
162.496	-0
162.875	-0.6
163.254	-0.26
163.633	-0.08
164.012	-0
164.391	-0.7
164.77	-0
165.149	-0
165.528	-0.27
165.907	-1.11
166.286	0.18
166.665	0.58
167.044	-0
167.423	-0.41
167.802	-0
168.181	-0
168.559	-0
168.938	0.37
169.317	0.17
169.696	0.41
170.074	0.21
170.453	-0
170.832	0.37
171.21	0.85
171.589	0.24
171.968	-0.54
172.346	-0
172.725	-0
173.103	0.95
173.482	0.09
173.861	-0
174.239	-0.11
174.617	-0
174.996	-0
175.374	-0.78
175.753	-0.4
176.131	-0
176.51	-0.12
176.888	-0.08
177.266	-0.07
177.645	0.7
178.023	0.36
178.401	-0
178.779	-0.04
179.158	1.3
179.536	-0
179.914	-0.85
180.292	-0
180.67	0.26
181.048	-0
181.427	-0.4
181.805	-0
182.183	0.18
182.561	-0
182.939	-0.4
183.317	-0.3
183.695	-0.6
184.073	-0.6
184.451	0.3
184.829	0.26
185.206	0.45
185.584	-0.33
185.962	-0.48
186.34	1
186.718	-0
187.096	0.81
187.473	0.32
187.851	-0
188.229	-0.43
188.607	-0.07
188.984	0.55
189.362	0.29
189.74	-0.1
190.117	-0
190.495	-0.19
190.872	0.13
191.25	0.48
191.627	-0.17
192.005	0.12
192.382	-0
192.76	-0
193.137	-0.1
193.515	0.43
193.892	0.53
194.269	0.28
194.647	0.11
195.024	0.95
195.401	0.34
195.779	0.21
196.156	0.23
196.533	-0.2
196.91	-0.19
197.288	-0
197.665	-1.45
198.042	1.2
198.419	-0.05
198.796	0.15
199.173	-0.1
199.55	-0
199.927	-0.09
200.304	-0.14
200.681	-0.38
201.058	0.16
201.435	0.03
201.812	-0.11
202.189	-0
202.566	0.22
202.943	0.34
203.32	0.13
203.697	0.47
204.073	-0.13
204.45	-0.06
204.827	0.16
205.204	-0
205.58	0.32
205.957	0.04
206.334	0.15
206.71	-0
207.087	-0.06
207.464	-0.12
207.84	0.6
208.217	0.34
208.593	-0.17
208.97	0.18
209.346	0.07
209.723	-0.05
210.099	0.25
210.476	-0
210.852	0.13
211.228	-0.15
211.605	0.14
211.981	0.04
212.357	1.11
212.733	0.05
213.11	0.83
213.486	0.03
213.862	-0
214.238	0.08
214.614	0.81
214.991	0.19
215.367	0.02
215.743	0.1
216.119	-0.11
216.495	-0.2
216.871	-0
217.247	0.14
217.623	0.28
217.999	0.02
218.375	-0.08
218.751	0.31
219.127	0.14
219.502	-0.05
219.878	0.36
220.254	-0.04
220.63	0.12
221.006	0.57
221.381	0.39
221.757	0.35
222.133	0.08
222.508	0.11
222.884	0.01
223.26	-0.18
223.635	-0.1
224.011	-0.27
224.386	0.23
224.762	0.14
225.137	0.16
225.513	0.14
225.888	-0.61
226.264	0.23
226.639	0.25
227.014	0.01
227.39	-0
227.765	0.24
228.14	0.36
228.516	-0.16
228.891	0.05
229.266	0.1
229.641	-0
230.017	0.39
230.392	0.65
230.767	0.2
231.142	-0.07
231.517	0.28
231.892	0.12
232.267	-0.08
232.642	-0.03
233.017	0.01
233.392	0.44
233.767	0.35
234.142	0.12
234.517	0.2
234.892	0.23
235.267	0.12
235.641	-0.03
236.016	-0.05
236.391	0.29
236.766	0.08
237.14	0.11
237.515	0.12
237.89	0.36
238.264	0.39
238.639	-0.01
239.014	0.07
239.388	0.06
239.763	0.11
240.137	0.23
240.512	0.63
240.886	-0
241.261	0.6
241.635	0.19
242.009	0.26
242.384	-0.05
242.758	-0.09
243.132	0.05
243.507	-0.04
243.881	0.03
244.255	0.23
244.629	-0.11
245.004	0.22
245.378	0.17
245.752	0.39
246.126	-0.2
246.5	-0.01
246.874	-0.11
247.248	0.38
247.622	0.23
247.996	0.28
248.37	0.36
248.744	0.35
249.118	-0.01
249.492	-0
249.866	0.21
250.24	0.19
250.613	0.12
250.987	0.08
251.361	0.14
251.735	0.23
252.108	0.07
252.482	0.15
252.856	0.21
253.229	0.11
253.603	0.13
253.977	0.13
254.35	0.08
254.724	0.22
255.097	0.74
255.471	0.13
255.844	0.14
256.218	0.12
256.591	0.32
256.964	0.09
257.338	0.13
257.711	0.32
258.084	0.23
258.458	0.23
258.831	0.3
259.204	0.21
259.577	0.16
259.95	0.23
260.323	0.32
260.697	0.16
261.07	0.25
261.443	0.31
261.816	0.23
262.189	0.2
262.562	0.19
262.935	0.27
263.308	0.2
263.68	0.2
264.053	0.24
264.426	0.2
264.799	0.2
265.172	0.16
265.545	0.22
265.917	0.16
266.29	0.16
266.663	0.17
267.035	0.18
267.408	0.17
267.781	0.16
268.153	0.14
268.526	0.18
268.898	0.15
269.271	0.13
269.643	0.16
270.016	0.2
270.388	0.18
270.76	0.14
271.133	0.15
271.505	0.12
271.877	0.12
272.25	0.16
272.622	0.15
272.994	0.14
273.366	0.13
273.739	0.18
274.111	0.14
274.483	0.15
274.855	0.15
275.227	0.14
275.599	0.14
275.971	0.13
276.343	0.15
276.715	0.13
277.087	0.16
277.459	0.13
277.831	0.16
278.203	0.15
278.574	0.16
278.946	0.15
279.318	0.15
279.69	0.18
280.061	0.15
280.433	0.15
280.805	0.16
281.176	0.16
281.548	0.15
281.92	0.16
282.291	0.17
282.663	0.17
283.034	0.17
283.406	0.17
283.777	0.17
284.148	0.17
284.52	0.17
284.891	0.19
285.262	0.18
285.634	0.19
286.005	0.2
286.376	0.18
286.747	0.2
287.119	0.2
287.49	0.2
287.861	0.21
288.232	0.21
288.603	0.22
288.974	0.21
289.345	0.2
289.716	0.22
290.087	0.21
290.458	0.23
290.829	0.21
291.2	0.23
291.571	0.24
291.941	0.23
292.312	0.23
292.683	0.23
293.054	0.23
293.424	0.24
293.795	0.25
294.166	0.25
294.536	0.23
294.907	0.25
295.277	0.24
295.648	0.26
296.018	0.27
296.389	0.26
296.759	0.26
297.13	0.27
297.5	0.25
297.871	0.27
298.241	0.27
298.611	0.28
298.981	0.27
299.352	0.28
299.722	0.28
300.092	0.29
300.462	0.29
300.832	0.3
301.202	0.3
301.573	0.3
301.943	0.3
302.313	0.31
302.683	0.3
303.053	0.31
303.422	0.33
303.792	0.32
304.162	0.33
304.532	0.33
304.902	0.34
305.272	0.34
305.641	0.35
306.011	0.35
306.381	0.35
306.75	0.36
307.12	0.36
307.49	0.36
307.859	0.36
308.229	0.38
308.598	0.38
308.968	0.38
309.337	0.38
309.707	0.38
310.076	0.4
310.445	0.4
310.815	0.4
311.184	0.4
311.553	0.41
311.923	0.42
312.292	0.41
312.661	0.42
313.03	0.43
313.399	0.45
313.768	0.44
314.137	0.44
314.506	0.45
314.875	0.45
315.244	0.46
315.613	0.47
315.982	0.47
316.351	0.47
316.72	0.48
317.089	0.48
317.458	0.49
317.826	0.49
318.195	0.49
318.564	0.51
318.933	0.53
319.301	0.51
319.67	0.52
320.038	0.52
320.407	0.53
320.775	0.55
321.144	0.55
321.512	0.55
321.881	0.54
322.249	0.55
322.618	0.57
322.986	0.57
323.354	0.56
323.723	0.58
324.091	0.59
324.459	0.59
324.827	0.6
325.195	0.62
325.564	0.61
325.932	0.62
326.3	0.63
326.668	0.64
327.036	0.64
327.404	0.64
327.772	0.65
328.14	0.64
328.508	0.67
328.875	0.69
329.243	0.7
329.611	0.71
329.979	0.69
330.346	0.69
330.714	0.68
331.082	0.69
331.449	0.7
331.817	0.7
332.185	0.72
332.552	0.73
332.92	0.72
333.287	0.75
333.655	0.75
334.022	0.77
334.389	0.78
334.757	0.78
335.124	0.77
335.491	0.78
335.859	0.78
336.226	0.78
336.593	0.79
336.96	0.8
337.327	0.8
337.695	0.8
338.062	0.82
338.429	0.83
338.796	0.81
339.163	0.82
339.53	0.84
339.897	0.85
340.263	0.84
340.63	0.84
340.997	0.84
341.364	0.86
341.731	0.85
342.097	0.85
342.464	0.86
342.831	0.86
343.197	0.86
343.564	0.87
343.931	0.86
344.297	0.87
344.664	0.88
345.03	0.89
345.396	0.89
345.763	0.9
346.129	0.89
346.496	0.87
346.862	0.88
347.228	0.9
347.594	0.87
347.961	0.9
348.327	0.91
348.693	0.9
349.059	0.89
349.425	0.9
349.791	0.89
350.157	0.9
350.523	0.92
350.889	0.91
351.255	0.92
351.621	0.9
351.987	0.91
352.353	0.93
352.719	0.93
353.084	0.91
353.45	0.9
353.816	0.92
354.181	0.91
354.547	0.91
354.913	0.91
355.278	0.92
355.644	0.92
356.009	0.9
356.375	0.9
356.74	0.9
357.106	0.9
357.471	0.87
357.836	0.87
358.202	0.9
358.567	0.88
358.932	0.86
359.297	0.88
359.663	0.84
360.028	0.85
360.393	0.85
360.758	0.87
361.123	0.85
361.488	0.86
361.853	0.85
362.218	0.82
362.583	0.83
362.948	0.81
363.312	0.86
363.677	0.8
364.042	0.83
364.407	0.81
364.772	0.81
365.136	0.79
365.501	0.79
365.865	0.81
366.23	0.78
366.595	0.79
366.959	0.78
367.324	0.78
367.688	0.76
368.052	0.75
368.417	0.77
368.781	0.75
369.145	0.76
369.51	0.72
369.874	0.75
370.238	0.7
370.602	0.72
370.967	0.69
371.331	0.72
371.695	0.71
372.059	0.69
372.423	0.7
372.787	0.69
373.151	0.67
373.515	0.67
373.878	0.65
374.242	0.65
374.606	0.63
374.97	0.63
375.334	0.63
375.697	0.62
376.061	0.62
376.425	0.62
376.788	0.6
377.152	0.58
377.515	0.6
377.879	0.58
378.242	0.58
378.606	0.55
378.969	0.57
379.333	0.55
379.696	0.54
380.059	0.53
380.422	0.52
380.786	0.53
381.149	0.52
381.512	0.51
381.875	0.47
382.238	0.49
382.601	0.49
382.964	0.47
383.327	0.45
383.69	0.46
384.053	0.45
384.416	0.43
384.779	0.42
385.142	0.42
385.504	0.41
385.867	0.41
386.23	0.39
386.593	0.41
386.955	0.4
387.318	0.38
387.68	0.38
388.043	0.37
388.405	0.36
388.768	0.36
389.13	0.35
389.493	0.35
389.855	0.35
390.217	0.34
390.58	0.34
390.942	0.32
391.304	0.32
391.666	0.31
392.028	0.32
392.391	0.32
392.753	0.29
393.115	0.31
393.477	0.29
393.839	0.3
394.201	0.28
394.563	0.29
394.924	0.29
395.286	0.28
395.648	0.27
396.01	0.27
396.371	0.27
396.733	0.28
397.095	0.26
397.456	0.27
397.818	0.25
398.18	0.25
398.541	0.25
398.903	0.25
399.264	0.24
399.625	0.24
399.987	0.24
400.348	0.25
400.709	0.24
401.071	0.24
401.432	0.23
401.793	0.23
402.154	0.22
402.515	0.23
402.876	0.21
403.238	0.23
403.599	0.23
403.96	0.21
404.32	0.22
404.681	0.22
405.042	0.22
405.403	0.21
405.764	0.21
406.125	0.22
406.485	0.22
406.846	0.22
407.207	0.21
407.567	0.2
407.928	0.21
408.288	0.21
408.649	0.2
409.009	0.2
409.37	0.2
409.73	0.19
410.091	0.2
410.451	0.18
410.811	0.19
411.171	0.19
411.532	0.19
411.892	0.19
412.252	0.17
412.612	0.18
412.972	0.19
413.332	0.19
413.692	0.19
414.052	0.19
414.412	0.19
414.772	0.2
415.132	0.19
415.492	0.19
415.851	0.19
416.211	0.19
416.571	0.19
416.931	0.2
417.29	0.19
417.65	0.18
418.009	0.19
418.369	0.19
418.728	0.18
419.088	0.17
419.447	0.17
419.807	0.17
420.166	0.17
420.525	0.18
420.884	0.18
421.244	0.18
421.603	0.18
421.962	0.17
422.321	0.16
422.68	0.18
423.039	0.18
423.398	0.16
423.757	0.17
424.116	0.19
424.475	0.17
424.834	0.17
425.193	0.17
425.551	0.16
425.91	0.17
426.269	0.17
426.628	0.18
426.986	0.16
427.345	0.17
427.703	0.17
428.062	0.17
428.42	0.15
428.779	0.16
429.137	0.16
429.496	0.17
429.854	0.17
430.212	0.16
430.57	0.15
430.929	0.15
431.287	0.14
431.645	0.15
432.003	0.15
432.361	0.16
432.719	0.16
433.077	0.15
433.435	0.15
433.793	0.16
434.151	0.14
434.509	0.13
434.866	0.15
435.224	0.15
435.582	0.16
435.94	0.14
436.297	0.14
436.655	0.14
437.012	0.14
437.37	0.14
437.727	0.14
438.085	0.14
438.442	0.13
438.8	0.13
439.157	0.13
439.514	0.14
439.872	0.13
440.229	0.14
440.586	0.13
440.943	0.13
441.3	0.12
441.657	0.12
442.014	0.12
442.371	0.13
442.728	0.13
443.085	0.14
443.442	0.11
443.799	0.11
444.156	0.12
444.513	0.11
444.869	0.12
445.226	0.13
445.583	0.13
445.939	0.11
446.296	0.12
446.652	0.12
447.009	0.11
447.365	0.11
447.722	0.11
448.078	0.11
448.434	0.11
448.791	0.12
449.147	0.1
449.503	0.11
449.859	0.1
450.215	0.1
450.571	0.1
450.928	0.1
451.284	0.1
451.64	0.1
451.995	0.1
452.351	0.1
452.707	0.09
453.063	0.1
453.419	0.1
453.775	0.09
454.13	0.1
454.486	0.1
454.842	0.1
455.197	0.08
455.553	0.08
455.908	0.08
456.264	0.09
456.619	0.08
456.975	0.08
457.33	0.08
457.685	0.07
458.04	0.07
458.396	0.07
458.751	0.08
459.106	0.08
459.461	0.08
459.816	0.06
460.171	0.07
460.526	0.06
460.881	0.07
461.236	0.07
461.591	0.06
461.946	0.07
462.301	0.06
462.655	0.06
463.01	0.05
463.365	0.05
463.719	0.04
464.074	0.05
464.428	0.04
464.783	0.04
465.137	0.03
465.492	0.04
465.846	0.03
466.201	0.04
466.555	0.04
466.909	0.04
467.263	0.03
467.618	0.03
467.972	0.03
468.326	0.03
468.68	0.03
469.034	0.03
469.388	0.03
469.742	0.02
470.096	0.02
470.45	0.03
470.804	0.02
471.157	0.02
471.511	0.01
471.865	0.03
472.218	0.01
472.572	0.02
472.926	0.01
473.279	0.02
473.633	0.01
473.986	0.02
474.34	0.02
474.693	0.01
475.046	0.01
475.4	0
475.753	0.01
476.106	0
476.459	0.02
476.812	0
477.165	0.01
477.519	0.01
477.872	0
478.224	0
478.577	0.01
478.93	0.01
479.283	0.02
479.636	-0.01
479.989	-0
480.341	0
480.694	0
481.047	-0
481.399	0
481.752	-0.01
482.104	-0
482.457	-0.01
482.809	-0.01
483.162	-0.01
483.514	-0
483.866	-0
484.219	-0
484.571	-0.01
484.923	-0.01
485.275	0.01
485.627	-0.01
485.979	-0.01
486.331	0.01
486.683	0
487.035	0.01
487.387	0
487.739	0.01
488.091	0
488.443	-0.01
488.794	-0.03
489.146	-0.01
489.498	-0.01
489.849	-0.01
490.201	-0.02
490.552	-0
490.904	-0.01
491.255	-0.02
491.607	-0.01
491.958	0
492.309	-0.01
492.661	-0
493.012	-0.01
493.363	0.01
493.714	-0.02
494.065	-0
494.416	-0.01
494.767	-0
495.118	-0.01
495.469	-0.01
495.82	-0
496.171	-0
496.522	-0.01
496.872	-0.01
497.223	-0.02
497.574	-0.02
497.924	0
498.275	0.01
498.626	-0
498.976	-0.01
499.327	-0.01
499.677	-0.02
500.027	-0.02
500.378	-0.02
500.728	-0.04
501.078	-0.02
501.428	-0.03
501.779	-0.02
502.129	-0.02
502.479	-0.01
502.829	-0.02
503.179	-0.03
503.529	-0.01
503.879	-0.01
504.229	-0.01
504.578	-0.02
504.928	-0.01
505.278	-0.02
505.628	-0.02
505.977	-0.02
506.327	-0.03
506.676	-0.02
507.026	-0.01
507.375	-0.03
507.725	-0.04
508.074	-0
508.424	-0.03
508.773	-0.03
509.122	-0.02
509.471	-0.03
509.82	-0.01
510.17	-0.02
510.519	-0.03
510.868	-0.03
511.217	-0.01
511.566	-0.02
511.915	-0.02
512.263	-0.02
512.612	-0.02
512.961	-0.02
513.31	-0.02
513.659	-0.02
514.007	-0.03
514.356	-0.02
514.704	-0.01
515.053	-0.02
515.401	-0.03
515.75	-0.02
516.098	-0.03
516.447	-0.02
516.795	-0.02
517.143	-0.02
517.491	-0.02
517.839	-0.03
518.188	-0.03
518.536	-0.03
518.884	-0.02
519.232	-0.04
519.58	-0.04
519.928	-0.02
520.275	-0.01
520.623	-0.02
520.971	-0.02
521.319	-0.02
521.666	-0.04
522.014	-0.03
522.362	-0.05
522.709	-0.03
523.057	-0.04
523.404	-0.03
523.752	-0.02
524.099	-0.02
524.446	-0.01
524.794	-0.04
525.141	-0.02
525.488	-0.03
525.835	-0.02
526.182	-0.03
526.529	-0.02
526.876	-0.03
527.223	-0.02
527.57	-0.03
527.917	-0.02
528.264	-0.03
528.611	-0.03
528.958	-0.03
529.304	-0.03
529.651	-0.04
529.998	-0.04
530.344	-0.03
530.691	-0.04
531.037	-0.04
531.384	-0.03
531.73	-0.02
532.076	-0.03
532.423	-0.02
532.769	-0.03
533.115	-0.02
533.461	-0.03
533.807	-0.03
534.154	-0.02
534.5	-0.02
534.846	-0.02
535.192	-0.02
535.537	-0.03
535.883	-0.03
536.229	-0.03
536.575	-0.03
536.921	-0.03
537.266	-0.03
537.612	-0.02
537.957	-0.01
538.303	-0.03
538.649	-0.03
538.994	-0.03
539.339	-0.03
539.685	-0.03
540.03	-0.03
540.375	-0.03
540.721	-0.02
541.066	-0.02
541.411	-0.02
541.756	-0.03
542.101	-0.03
542.446	-0.02
542.791	-0.03
543.136	-0.03
543.481	-0.02
543.825	-0.04
544.17	-0.05
544.515	-0.02
544.86	-0.03
545.204	-0.04
545.549	-0.03
545.893	-0.05
546.238	-0.03
546.582	-0.03
546.927	-0.04
547.271	-0.02
547.615	-0.03
547.96	-0.03
548.304	-0.03
548.648	-0.04
548.992	-0.03
549.336	-0.04
549.68	-0.02
550.024	-0.05
550.368	-0.03
550.712	-0.04
551.056	-0.02
551.4	-0.03
551.743	-0.02
552.087	-0.02
552.431	-0.03
552.774	-0.01
553.118	-0.04
553.462	-0.03
553.805	-0.02
554.148	-0.03
554.492	-0.02
554.835	-0.04
555.178	-0.02
555.522	-0.04
555.865	-0.03
556.208	-0.03
556.551	-0.03
556.894	-0.05
557.237	-0.01
557.58	-0.04
557.923	-0.03
558.266	-0.03
558.609	-0.03
558.952	-0.04
559.294	-0.04
559.637	-0.05
559.98	-0.04
560.322	-0.02
560.665	-0.03
561.007	-0.03
561.35	-0.04
561.692	-0.03
562.034	-0.04
562.377	-0.04
562.719	-0.03
563.061	-0.03
563.403	-0.03
563.745	-0.03
564.088	-0.03
564.43	-0.01
564.772	-0.03
565.113	-0.03
565.455	-0.03
565.797	-0.02
566.139	-0.04
566.481	-0.03
566.822	-0.03
567.164	-0.04
567.506	-0.03
567.847	-0.03
568.189	-0.02
568.53	-0.03
568.872	-0.03
569.213	-0.03
569.554	-0.03
569.895	-0.03
570.237	-0.03
570.578	-0.04
570.919	-0.04
571.26	-0.03
571.601	-0.03
571.942	-0.03
572.283	-0.02
572.624	-0.03
572.965	-0.02
573.306	-0.03
573.646	-0.03
573.987	-0.03
574.328	-0.04
574.668	-0.03
575.009	-0.04
575.349	-0.04
575.69	-0.03
576.03	-0.03
576.37	-0.03
576.711	-0.04
577.051	-0.03
577.391	-0.03
577.731	-0.03
578.072	-0.02
578.412	-0.03
578.752	-0.03
579.092	-0.03
579.431	-0.02
579.771	-0.02
580.111	-0.02
580.451	-0.02
580.791	-0.03
581.13	-0.02
581.47	-0.03
581.81	-0.03
582.149	-0.03
582.489	-0.03
582.828	-0.01
583.167	-0.03
583.507	-0.02
583.846	-0.03
584.185	-0.02
584.525	-0.02
584.864	-0.02
585.203	-0.03
585.542	-0.02
585.881	-0.03
586.22	-0.03
586.559	-0.02
586.898	-0.02
587.236	-0.02
587.575	-0.03
587.914	-0.03
588.252	-0.03
588.591	-0.03
588.93	-0.02
589.268	-0.04
589.607	-0.02
589.945	-0.03
590.283	-0.03
590.622	-0.03
590.96	-0.03
591.298	-0.04
591.636	-0.02
591.974	-0.03
592.313	-0.03
592.651	-0.02
592.989	-0.04
593.326	-0.03
593.664	-0.04
594.002	-0.04
594.34	-0.04
594.678	-0.04
595.015	-0.03
595.353	-0.03
595.691	-0.03
596.028	-0.04
596.366	-0.04
596.703	-0.04
597.04	-0.03
597.378	-0.02
597.715	-0.04
598.052	-0.04
598.389	-0.05
598.726	-0.04
599.064	-0.03
599.401	-0.05
599.738	-0.04
600.074	-0.04
600.411	-0.04
600.748	-0.04
601.085	-0.03
601.422	-0.04
601.758	-0.02
602.095	-0.02
602.432	-0.02
602.768	-0.03
603.105	-0.02
603.441	-0.03
603.777	-0.02
604.114	-0.03
604.45	-0.04
604.786	-0.02
605.122	-0.03
605.459	-0.03
605.795	-0.03
606.131	-0.02
606.467	-0.03
606.803	-0.04
607.139	-0.03
607.474	-0.03
607.81	-0.02
608.146	-0.03
608.482	-0.04
608.817	-0.03
609.153	-0.02
609.488	-0.03
609.824	-0.04
610.159	-0.04
610.495	-0.04
610.83	-0.03
611.165	-0.04
611.5	-0.04
611.836	-0.04
612.171	-0.04
612.506	-0.05
612.841	-0.03
613.176	-0.04
613.511	-0.04
613.845	-0.04
614.18	-0.03
614.515	-0.05
614.85	-0.05
615.184	-0.04
615.519	-0.03
615.854	-0.04
616.188	-0.03
616.523	-0.04
616.857	-0.03
617.191	-0.04
617.526	-0.03
617.86	-0.04
618.194	-0.04
618.528	-0.03
618.862	-0.05
619.196	-0.03
619.53	-0.04
619.864	-0.05
620.198	-0.04
620.532	-0.04
620.866	-0.04
621.2	-0.04
621.533	-0.04
621.867	-0.04
622.201	-0.02
622.534	-0.04
622.868	-0.03
623.201	-0.04
623.534	-0.03
623.868	-0.03
624.201	-0.03
624.534	-0.03
624.868	-0.03
625.201	-0.03
625.534	-0.03
625.867	-0.03
626.2	-0.04
626.533	-0.04
626.865	-0.04
627.198	-0.04
627.531	-0.06
627.864	-0.04
628.196	-0.05
628.529	-0.05
628.862	-0.04
629.194	-0.04
629.527	-0.04
629.859	-0.04
630.191	-0.04
630.524	-0.04
630.856	-0.04
631.188	-0.04
631.52	-0.03
631.852	-0.04
632.184	-0.05
632.516	-0.04
632.848	-0.05
633.18	-0.05
633.512	-0.06
633.844	-0.05
634.175	-0.05
634.507	-0.04
634.839	-0.05
635.17	-0.04
635.502	-0.04
635.833	-0.04
636.165	-0.05
636.496	-0.04
636.827	-0.05
637.159	-0.05
637.49	-0.05
637.821	-0.05
638.152	-0.04
638.483	-0.03
638.814	-0.04
639.145	-0.05
639.476	-0.04
639.807	-0.05
640.137	-0.05
640.468	-0.03
640.799	-0.05
641.129	-0.05
641.46	-0.06
641.791	-0.06
642.121	-0.06
642.451	-0.05
642.782	-0.05
643.112	-0.05
643.442	-0.05
643.773	-0.05
644.103	-0.04
644.433	-0.04
644.763	-0.04
645.093	-0.04
645.423	-0.04
645.753	-0.04
646.082	-0.05
646.412	-0.05
646.742	-0.04
647.072	-0.05
647.401	-0.03
647.731	-0.03
648.06	-0.02
648.39	-0.04
648.719	-0.03
649.048	-0.03
649.378	-0.03
649.707	-0.04
650.036	-0.04
650.365	-0.04
650.694	-0.04
651.023	-0.03
651.352	-0.05
651.681	-0.03
652.01	-0.03
652.339	-0.03
