Data from c2t_JH05_50uM_Absorbance_11-14-29-035.txt Node
Date: Thu Dec 21 11:14:29 GMT 2017
User: egn-admin
Spectrometer: OFX00224
Trigger mode: 0
Integration Time (sec): 5.000000E-2
Scans to average: 1
Nonlinearity correction enabled: false
Boxcar width: 0
Storing dark spectrum: false
XAxis mode: Wavelengths
Number of Pixels in Spectrum: 2136
>>>>>Begin Spectral Data<<<<<
154.91	-0.07
155.289	0.1
155.669	-0.03
156.048	0.22
156.428	-0
156.807	-0
157.186	-0.5
157.566	-0.1
157.945	-0
158.325	-1.06
158.704	-0
159.083	-0
159.462	-0.08
159.842	-0.6
160.221	0.48
160.6	0.38
160.979	-0.54
161.359	-0
161.738	-0
162.117	0.15
162.496	-0
162.875	-0
163.254	0.06
163.633	0.67
164.012	-0.51
164.391	-0.95
164.77	0.18
165.149	-0
165.528	-0
165.907	-0.48
166.286	-0.18
166.665	-0
167.044	-0
167.423	0.09
167.802	-0
168.181	-0
168.559	-0
168.938	-0
169.317	0.62
169.696	-0.12
170.074	0.85
170.453	-0
170.832	-0.11
171.21	-0.15
171.589	-0
171.968	0.26
172.346	-0
172.725	-0
173.103	0.26
173.482	0.09
173.861	-0
174.239	-0.23
174.617	-0
174.996	0.1
175.374	-0
175.753	-0.7
176.131	-0
176.51	-0.28
176.888	-0.17
177.266	-0.28
177.645	1
178.023	-0.1
178.401	-0
178.779	-0.11
179.158	-0.2
179.536	-0
179.914	-0.54
180.292	0.18
180.67	0.06
181.048	-0
181.427	-0.1
181.805	0.45
182.183	0.41
182.561	-0
182.939	0.03
183.317	-0
183.695	-0
184.073	-0.48
184.451	-0
184.829	-0
185.206	-0.11
185.584	-0.46
185.962	-0
186.34	-0.26
186.718	0.51
187.096	-0
187.473	0.38
187.851	-0.22
188.229	-0
188.607	0.27
188.984	0.4
189.362	0.17
189.74	-0.09
190.117	-0
190.495	-0.15
190.872	0.15
191.25	0.36
191.627	0.15
192.005	-0.01
192.382	-0.09
192.76	0.18
193.137	-0.3
193.515	-0.23
193.892	-0
194.269	-0
194.647	0.49
195.024	-0.46
195.401	0.55
195.779	0.22
196.156	-0.19
196.533	-0.22
196.91	-0.19
197.288	-0.52
197.665	-1.41
198.042	-0
198.419	0.1
198.796	0.59
199.173	-0
199.55	-0
199.927	-0.44
200.304	-0.06
200.681	-0.29
201.058	0.29
201.435	0.15
201.812	-0.26
202.189	1.19
202.566	0.49
202.943	0.11
203.32	0.21
203.697	0.27
204.073	-0.04
204.45	0.63
204.827	0.01
205.204	-0
205.58	0.21
205.957	-0.05
206.334	0.52
206.71	0.11
207.087	0.09
207.464	0.41
207.84	0.15
208.217	0.06
208.593	-0.17
208.97	0.1
209.346	0.09
209.723	-0.02
210.099	0.58
210.476	-0.17
210.852	0.31
211.228	-0
211.605	0.17
211.981	0.16
212.357	-0
212.733	0.18
213.11	-0
213.486	0.08
213.862	0.36
214.238	0.05
214.614	0.07
214.991	0.04
215.367	-0.14
215.743	-0.15
216.119	0.56
216.495	-0.18
216.871	0.33
217.247	0.27
217.623	0.48
217.999	0.32
218.375	0.35
218.751	0.2
219.127	0.54
219.502	0.01
219.878	-0.06
220.254	-0.04
220.63	0.35
221.006	0.47
221.381	0.02
221.757	0.23
222.133	0.3
222.508	0.27
222.884	0.25
223.26	0.2
223.635	-0.05
224.011	-0.3
224.386	0.19
224.762	0.21
225.137	0.91
225.513	0.22
225.888	-0.44
226.264	0.04
226.639	0.02
227.014	-0.11
227.39	-0.03
227.765	0.49
228.14	0.09
228.516	0.02
228.891	-0.08
229.266	0.18
229.641	-0
230.017	0.08
230.392	0.14
230.767	-0.04
231.142	-0.23
231.517	0.15
231.892	0.34
232.267	0.39
232.642	0.09
233.017	0.8
233.392	0.32
233.767	0.37
234.142	0.26
234.517	0.09
234.892	0.38
235.267	0.19
235.641	0.06
236.016	0.5
236.391	-0.08
236.766	-0.21
237.14	0.16
237.515	0.39
237.89	0.06
238.264	-0
238.639	-0.11
239.014	-0.02
239.388	0.1
239.763	0.34
240.137	0.01
240.512	0.09
240.886	0.45
241.261	-0.08
241.635	0.14
242.009	0.11
242.384	-0
242.758	-0.09
243.132	-0.01
243.507	0.23
243.881	0.18
244.255	-0.07
244.629	0.24
245.004	0.21
245.378	0.25
245.752	0.24
246.126	-0.11
246.5	0.25
246.874	0.6
247.248	0.31
247.622	0.16
247.996	0.14
248.37	0.24
248.744	0.31
249.118	0.39
249.492	-0.3
249.866	0.23
250.24	0.09
250.613	0.05
250.987	-0.01
251.361	-0.03
251.735	0.19
252.108	0.17
252.482	0.26
252.856	0.23
253.229	0.12
253.603	0.01
253.977	0.04
254.35	0.26
254.724	0.19
255.097	0.29
255.471	0.19
255.844	0.23
256.218	0.14
256.591	0.3
256.964	0.22
257.338	0.27
257.711	0.47
258.084	0.25
258.458	0.23
258.831	0.24
259.204	0.32
259.577	0.19
259.95	0.22
260.323	0.36
260.697	0.23
261.07	0.22
261.443	0.17
261.816	0.33
262.189	0.18
262.562	0.16
262.935	0.37
263.308	0.22
263.68	0.16
264.053	0.22
264.426	0.27
264.799	0.24
265.172	0.22
265.545	0.21
265.917	0.19
266.29	0.27
266.663	0.24
267.035	0.21
267.408	0.22
267.781	0.19
268.153	0.21
268.526	0.19
268.898	0.16
269.271	0.16
269.643	0.21
270.016	0.24
270.388	0.18
270.76	0.16
271.133	0.16
271.505	0.12
271.877	0.14
272.25	0.19
272.622	0.15
272.994	0.17
273.366	0.15
273.739	0.17
274.111	0.18
274.483	0.17
274.855	0.14
275.227	0.17
275.599	0.17
275.971	0.16
276.343	0.15
276.715	0.16
277.087	0.18
277.459	0.16
277.831	0.17
278.203	0.17
278.574	0.18
278.946	0.15
279.318	0.16
279.69	0.17
280.061	0.17
280.433	0.17
280.805	0.19
281.176	0.18
281.548	0.17
281.92	0.18
282.291	0.18
282.663	0.18
283.034	0.2
283.406	0.2
283.777	0.19
284.148	0.18
284.52	0.18
284.891	0.19
285.262	0.19
285.634	0.21
286.005	0.2
286.376	0.22
286.747	0.21
287.119	0.21
287.49	0.22
287.861	0.22
288.232	0.22
288.603	0.23
288.974	0.24
289.345	0.23
289.716	0.25
290.087	0.24
290.458	0.25
290.829	0.24
291.2	0.24
291.571	0.25
291.941	0.25
292.312	0.25
292.683	0.25
293.054	0.25
293.424	0.26
293.795	0.27
294.166	0.27
294.536	0.27
294.907	0.27
295.277	0.27
295.648	0.26
296.018	0.28
296.389	0.27
296.759	0.28
297.13	0.28
297.5	0.28
297.871	0.28
298.241	0.29
298.611	0.3
298.981	0.3
299.352	0.3
299.722	0.3
300.092	0.29
300.462	0.32
300.832	0.31
301.202	0.3
301.573	0.31
301.943	0.31
302.313	0.32
302.683	0.32
303.053	0.31
303.422	0.33
303.792	0.33
304.162	0.35
304.532	0.34
304.902	0.34
305.272	0.34
305.641	0.35
306.011	0.35
306.381	0.35
306.75	0.35
307.12	0.36
307.49	0.37
307.859	0.37
308.229	0.37
308.598	0.37
308.968	0.38
309.337	0.38
309.707	0.38
310.076	0.39
310.445	0.39
310.815	0.39
311.184	0.39
311.553	0.4
311.923	0.4
312.292	0.4
312.661	0.4
313.03	0.41
313.399	0.41
313.768	0.42
314.137	0.42
314.506	0.42
314.875	0.44
315.244	0.44
315.613	0.44
315.982	0.43
316.351	0.43
316.72	0.44
317.089	0.45
317.458	0.44
317.826	0.45
318.195	0.45
318.564	0.46
318.933	0.46
319.301	0.47
319.67	0.46
320.038	0.47
320.407	0.48
320.775	0.49
321.144	0.49
321.512	0.49
321.881	0.51
322.249	0.51
322.618	0.49
322.986	0.5
323.354	0.5
323.723	0.5
324.091	0.52
324.459	0.51
324.827	0.51
325.195	0.52
325.564	0.52
325.932	0.52
326.3	0.52
326.668	0.53
327.036	0.54
327.404	0.53
327.772	0.53
328.14	0.54
328.508	0.53
328.875	0.56
329.243	0.56
329.611	0.58
329.979	0.57
330.346	0.56
330.714	0.56
331.082	0.55
331.449	0.56
331.817	0.56
332.185	0.56
332.552	0.59
332.92	0.57
333.287	0.58
333.655	0.58
334.022	0.61
334.389	0.61
334.757	0.59
335.124	0.61
335.491	0.6
335.859	0.61
336.226	0.61
336.593	0.6
336.96	0.6
337.327	0.61
337.695	0.61
338.062	0.61
338.429	0.61
338.796	0.62
339.163	0.64
339.53	0.62
339.897	0.63
340.263	0.62
340.63	0.64
340.997	0.63
341.364	0.62
341.731	0.65
342.097	0.63
342.464	0.63
342.831	0.64
343.197	0.64
343.564	0.64
343.931	0.63
344.297	0.63
344.664	0.64
345.03	0.64
345.396	0.64
345.763	0.63
346.129	0.65
346.496	0.64
346.862	0.65
347.228	0.66
347.594	0.62
347.961	0.65
348.327	0.64
348.693	0.64
349.059	0.64
349.425	0.65
349.791	0.64
350.157	0.65
350.523	0.64
350.889	0.64
351.255	0.64
351.621	0.66
351.987	0.63
352.353	0.64
352.719	0.65
353.084	0.63
353.45	0.63
353.816	0.63
354.181	0.64
354.547	0.64
354.913	0.62
355.278	0.64
355.644	0.63
356.009	0.64
356.375	0.62
356.74	0.61
357.106	0.62
357.471	0.6
357.836	0.59
358.202	0.61
358.567	0.6
358.932	0.6
359.297	0.59
359.663	0.59
360.028	0.6
360.393	0.6
360.758	0.59
361.123	0.58
361.488	0.58
361.853	0.58
362.218	0.57
362.583	0.56
362.948	0.57
363.312	0.57
363.677	0.54
364.042	0.54
364.407	0.55
364.772	0.54
365.136	0.55
365.501	0.52
365.865	0.54
366.23	0.53
366.595	0.53
366.959	0.54
367.324	0.53
367.688	0.51
368.052	0.49
368.417	0.5
368.781	0.5
369.145	0.5
369.51	0.5
369.874	0.5
370.238	0.48
370.602	0.46
370.967	0.47
371.331	0.46
371.695	0.46
372.059	0.47
372.423	0.46
372.787	0.46
373.151	0.46
373.515	0.45
373.878	0.44
374.242	0.44
374.606	0.42
374.97	0.44
375.334	0.42
375.697	0.41
376.061	0.42
376.425	0.41
376.788	0.43
377.152	0.39
377.515	0.41
377.879	0.4
378.242	0.4
378.606	0.39
378.969	0.38
379.333	0.38
379.696	0.37
380.059	0.36
380.422	0.36
380.786	0.34
381.149	0.34
381.512	0.35
381.875	0.33
382.238	0.34
382.601	0.32
382.964	0.3
383.327	0.31
383.69	0.3
384.053	0.3
384.416	0.29
384.779	0.3
385.142	0.29
385.504	0.29
385.867	0.29
386.23	0.27
386.593	0.28
386.955	0.28
387.318	0.26
387.68	0.26
388.043	0.25
388.405	0.25
388.768	0.26
389.13	0.24
389.493	0.23
389.855	0.25
390.217	0.23
390.58	0.23
390.942	0.22
391.304	0.22
391.666	0.22
392.028	0.22
392.391	0.22
392.753	0.22
393.115	0.21
393.477	0.21
393.839	0.2
394.201	0.22
394.563	0.22
394.924	0.2
395.286	0.2
395.648	0.19
396.01	0.19
396.371	0.2
396.733	0.18
397.095	0.19
397.456	0.2
397.818	0.19
398.18	0.18
398.541	0.18
398.903	0.19
399.264	0.18
399.625	0.17
399.987	0.18
400.348	0.18
400.709	0.17
401.071	0.18
401.432	0.18
401.793	0.18
402.154	0.17
402.515	0.17
402.876	0.17
403.238	0.17
403.599	0.17
403.96	0.17
404.32	0.17
404.681	0.18
405.042	0.17
405.403	0.16
405.764	0.17
406.125	0.18
406.485	0.17
406.846	0.17
407.207	0.18
407.567	0.17
407.928	0.17
408.288	0.18
408.649	0.17
409.009	0.16
409.37	0.16
409.73	0.16
410.091	0.16
410.451	0.15
410.811	0.16
411.171	0.16
411.532	0.15
411.892	0.15
412.252	0.14
412.612	0.15
412.972	0.16
413.332	0.15
413.692	0.16
414.052	0.15
414.412	0.16
414.772	0.16
415.132	0.16
415.492	0.16
415.851	0.16
416.211	0.15
416.571	0.17
416.931	0.17
417.29	0.17
417.65	0.16
418.009	0.18
418.369	0.16
418.728	0.15
419.088	0.18
419.447	0.16
419.807	0.15
420.166	0.15
420.525	0.17
420.884	0.16
421.244	0.16
421.603	0.16
421.962	0.15
422.321	0.16
422.68	0.17
423.039	0.17
423.398	0.15
423.757	0.16
424.116	0.16
424.475	0.17
424.834	0.16
425.193	0.16
425.551	0.14
425.91	0.16
426.269	0.15
426.628	0.16
426.986	0.15
427.345	0.17
427.703	0.17
428.062	0.16
428.42	0.16
428.779	0.17
429.137	0.17
429.496	0.16
429.854	0.16
430.212	0.16
430.57	0.16
430.929	0.16
431.287	0.16
431.645	0.16
432.003	0.15
432.361	0.16
432.719	0.15
433.077	0.15
433.435	0.15
433.793	0.16
434.151	0.15
434.509	0.13
434.866	0.16
435.224	0.15
435.582	0.15
435.94	0.16
436.297	0.14
436.655	0.13
437.012	0.15
437.37	0.15
437.727	0.15
438.085	0.16
438.442	0.15
438.8	0.16
439.157	0.13
439.514	0.14
439.872	0.15
440.229	0.15
440.586	0.14
440.943	0.14
441.3	0.13
441.657	0.14
442.014	0.13
442.371	0.13
442.728	0.14
443.085	0.14
443.442	0.13
443.799	0.13
444.156	0.13
444.513	0.13
444.869	0.14
445.226	0.13
445.583	0.14
445.939	0.13
446.296	0.13
446.652	0.12
447.009	0.13
447.365	0.12
447.722	0.12
448.078	0.13
448.434	0.12
448.791	0.12
449.147	0.11
449.503	0.12
449.859	0.11
450.215	0.11
450.571	0.12
450.928	0.11
451.284	0.12
451.64	0.11
451.995	0.11
452.351	0.11
452.707	0.11
453.063	0.11
453.419	0.1
453.775	0.1
454.13	0.11
454.486	0.1
454.842	0.11
455.197	0.1
455.553	0.1
455.908	0.09
456.264	0.1
456.619	0.09
456.975	0.1
457.33	0.09
457.685	0.1
458.04	0.09
458.396	0.1
458.751	0.09
459.106	0.09
459.461	0.09
459.816	0.08
460.171	0.09
460.526	0.08
460.881	0.09
461.236	0.08
461.591	0.08
461.946	0.08
462.301	0.07
462.655	0.07
463.01	0.07
463.365	0.06
463.719	0.08
464.074	0.06
464.428	0.06
464.783	0.06
465.137	0.05
465.492	0.05
465.846	0.06
466.201	0.06
466.555	0.06
466.909	0.06
467.263	0.06
467.618	0.05
467.972	0.06
468.326	0.05
468.68	0.06
469.034	0.05
469.388	0.04
469.742	0.04
470.096	0.04
470.45	0.04
470.804	0.04
471.157	0.03
471.511	0.03
471.865	0.04
472.218	0.03
472.572	0.04
472.926	0.03
473.279	0.04
473.633	0.03
473.986	0.04
474.34	0.02
474.693	0.02
475.046	0.03
475.4	0.03
475.753	0.02
476.106	0.02
476.459	0.02
476.812	0.03
477.165	0.02
477.519	0.04
477.872	0.02
478.224	0.01
478.577	0.02
478.93	0.02
479.283	0.03
479.636	0.01
479.989	0.02
480.341	0.01
480.694	0.02
481.047	0.02
481.399	0.02
481.752	0.01
482.104	0.01
482.457	0.01
482.809	0
483.162	0.01
483.514	0.01
483.866	0.01
484.219	-0.01
484.571	0.01
484.923	0.02
485.275	0.01
485.627	-0
485.979	0
486.331	0.01
486.683	0.01
487.035	0.01
487.387	0.02
487.739	0.01
488.091	0.02
488.443	-0.01
488.794	0
489.146	-0
489.498	0.01
489.849	-0.01
490.201	-0.01
490.552	-0.01
490.904	-0.01
491.255	-0.01
491.607	0.02
491.958	0.01
492.309	-0
492.661	-0
493.012	-0
493.363	0.01
493.714	-0.01
494.065	0
494.416	0
494.767	0
495.118	-0.01
495.469	-0
495.82	0
496.171	0.01
496.522	-0.01
496.872	-0
497.223	-0
497.574	-0.02
497.924	0
498.275	0.01
498.626	0.01
498.976	-0.02
499.327	-0
499.677	-0.01
500.027	-0
500.378	-0
500.728	-0.02
501.078	-0.01
501.428	-0.02
501.779	-0.02
502.129	-0.02
502.479	-0.01
502.829	-0.01
503.179	-0.01
503.529	-0
503.879	-0.01
504.229	-0.02
504.578	-0.03
504.928	0
505.278	-0.02
505.628	-0.02
505.977	-0.02
506.327	-0.02
506.676	-0.02
507.026	0
507.375	-0.02
507.725	-0.03
508.074	-0
508.424	-0.01
508.773	-0.01
509.122	-0.03
509.471	-0.03
509.82	-0.03
510.17	-0.01
510.519	-0.01
510.868	-0.02
511.217	-0.01
511.566	-0.01
511.915	0
512.263	-0.01
512.612	-0.02
512.961	-0.01
513.31	-0.01
513.659	-0.01
514.007	-0.02
514.356	-0.02
514.704	-0.01
515.053	-0.01
515.401	-0.02
515.75	-0.02
516.098	-0.02
516.447	-0.03
516.795	-0.03
517.143	-0.02
517.491	-0.02
517.839	-0.02
518.188	-0.04
518.536	-0.03
518.884	-0.02
519.232	-0.04
519.58	-0.03
519.928	-0.02
520.275	-0.02
520.623	-0.02
520.971	-0.02
521.319	-0.02
521.666	-0.04
522.014	-0.02
522.362	-0.03
522.709	-0.03
523.057	-0.04
523.404	-0.02
523.752	-0.02
524.099	-0.03
524.446	-0.03
524.794	-0.05
525.141	-0.02
525.488	-0.03
525.835	-0.02
526.182	-0.03
526.529	-0.03
526.876	-0.02
527.223	-0.02
527.57	-0.03
527.917	-0.02
528.264	-0.04
528.611	-0.04
528.958	-0.03
529.304	-0.04
529.651	-0.04
529.998	-0.03
530.344	-0.04
530.691	-0.04
531.037	-0.03
531.384	-0.04
531.73	-0.04
532.076	-0.04
532.423	-0.03
532.769	-0.03
533.115	-0.01
533.461	-0.03
533.807	-0.03
534.154	-0.03
534.5	-0.02
534.846	-0.02
535.192	-0.02
535.537	-0.04
535.883	-0.03
536.229	-0.03
536.575	-0.01
536.921	-0.03
537.266	-0.03
537.612	-0.03
537.957	-0.02
538.303	-0.04
538.649	-0.03
538.994	-0.03
539.339	-0.02
539.685	-0.02
540.03	-0.03
540.375	-0.03
540.721	-0.03
541.066	-0.03
541.411	-0.02
541.756	-0.04
542.101	-0.02
542.446	-0.02
542.791	-0.02
543.136	-0.02
543.481	-0.04
543.825	-0.04
544.17	-0.04
544.515	-0.02
544.86	-0.03
545.204	-0.04
545.549	-0.03
545.893	-0.04
546.238	-0.04
546.582	-0.03
546.927	-0.04
547.271	-0.03
547.615	-0.04
547.96	-0.03
548.304	-0.04
548.648	-0.03
548.992	-0.03
549.336	-0.03
549.68	-0.03
550.024	-0.04
550.368	-0.02
550.712	-0.02
551.056	-0.03
551.4	-0.03
551.743	-0.03
552.087	-0.02
552.431	-0.02
552.774	-0.01
553.118	-0.04
553.462	-0.02
553.805	-0.01
554.148	-0.03
554.492	-0.02
554.835	-0.04
555.178	-0.03
555.522	-0.04
555.865	-0.02
556.208	-0.03
556.551	-0.04
556.894	-0.04
557.237	-0.03
557.58	-0.04
557.923	-0.04
558.266	-0.03
558.609	-0.03
558.952	-0.04
559.294	-0.02
559.637	-0.05
559.98	-0.04
560.322	-0.03
560.665	-0.03
561.007	-0.02
561.35	-0.05
561.692	-0.02
562.034	-0.04
562.377	-0.02
562.719	-0.02
563.061	-0.03
563.403	-0.04
563.745	-0.04
564.088	-0.03
564.43	-0.02
564.772	-0.03
565.113	-0.02
565.455	-0.03
565.797	-0.03
566.139	-0.04
566.481	-0.04
566.822	-0.03
567.164	-0.03
567.506	-0.02
567.847	-0.03
568.189	-0.03
568.53	-0.03
568.872	-0.03
569.213	-0.03
569.554	-0.03
569.895	-0.03
570.237	-0.03
570.578	-0.04
570.919	-0.04
571.26	-0.03
571.601	-0.03
571.942	-0.03
572.283	-0.03
572.624	-0.03
572.965	-0.03
573.306	-0.03
573.646	-0.03
573.987	-0.04
574.328	-0.03
574.668	-0.03
575.009	-0.04
575.349	-0.03
575.69	-0.02
576.03	-0.02
576.37	-0.04
576.711	-0.04
577.051	-0.03
577.391	-0.03
577.731	-0.04
578.072	-0.02
578.412	-0.02
578.752	-0.03
579.092	-0.03
579.431	-0.02
579.771	-0.03
580.111	-0.02
580.451	-0.02
580.791	-0.03
581.13	-0.02
581.47	-0.04
581.81	-0.03
582.149	-0.03
582.489	-0.04
582.828	-0.02
583.167	-0.03
583.507	-0.02
583.846	-0.03
584.185	-0.03
584.525	-0.02
584.864	-0.02
585.203	-0.04
585.542	-0.02
585.881	-0.03
586.22	-0.03
586.559	-0.03
586.898	-0.03
587.236	-0.02
587.575	-0.03
587.914	-0.03
588.252	-0.03
588.591	-0.03
588.93	-0.02
589.268	-0.03
589.607	-0.03
589.945	-0.03
590.283	-0.03
590.622	-0.03
590.96	-0.04
591.298	-0.04
591.636	-0.02
591.974	-0.03
592.313	-0.03
592.651	-0.03
592.989	-0.04
593.326	-0.04
593.664	-0.05
594.002	-0.04
594.34	-0.03
594.678	-0.04
595.015	-0.03
595.353	-0.03
595.691	-0.04
596.028	-0.03
596.366	-0.04
596.703	-0.03
597.04	-0.04
597.378	-0.02
597.715	-0.04
598.052	-0.04
598.389	-0.04
598.726	-0.04
599.064	-0.04
599.401	-0.05
599.738	-0.04
600.074	-0.04
600.411	-0.04
600.748	-0.04
601.085	-0.03
601.422	-0.04
601.758	-0.03
602.095	-0.03
602.432	-0.03
602.768	-0.03
603.105	-0.03
603.441	-0.02
603.777	-0.03
604.114	-0.03
604.45	-0.03
604.786	-0.03
605.122	-0.03
605.459	-0.04
605.795	-0.03
606.131	-0.02
606.467	-0.03
606.803	-0.02
607.139	-0.03
607.474	-0.02
607.81	-0.03
608.146	-0.03
608.482	-0.04
608.817	-0.03
609.153	-0.02
609.488	-0.04
609.824	-0.04
610.159	-0.05
610.495	-0.04
610.83	-0.04
611.165	-0.04
611.5	-0.04
611.836	-0.03
612.171	-0.03
612.506	-0.05
612.841	-0.04
613.176	-0.03
613.511	-0.03
613.845	-0.04
614.18	-0.03
614.515	-0.04
614.85	-0.04
615.184	-0.04
615.519	-0.03
615.854	-0.04
616.188	-0.04
616.523	-0.04
616.857	-0.04
617.191	-0.02
617.526	-0.02
617.86	-0.04
618.194	-0.04
618.528	-0.04
618.862	-0.04
619.196	-0.04
619.53	-0.03
619.864	-0.05
620.198	-0.03
620.532	-0.03
620.866	-0.04
621.2	-0.03
621.533	-0.04
621.867	-0.04
622.201	-0.02
622.534	-0.04
622.868	-0.02
623.201	-0.04
623.534	-0.03
623.868	-0.04
624.201	-0.04
624.534	-0.03
624.868	-0.03
625.201	-0.02
625.534	-0.03
625.867	-0.03
626.2	-0.03
626.533	-0.04
626.865	-0.04
627.198	-0.03
627.531	-0.05
627.864	-0.04
628.196	-0.05
628.529	-0.04
628.862	-0.04
629.194	-0.04
629.527	-0.03
629.859	-0.04
630.191	-0.04
630.524	-0.04
630.856	-0.05
631.188	-0.04
631.52	-0.04
631.852	-0.04
632.184	-0.04
632.516	-0.03
632.848	-0.05
633.18	-0.05
633.512	-0.04
633.844	-0.05
634.175	-0.05
634.507	-0.04
634.839	-0.05
635.17	-0.05
635.502	-0.04
635.833	-0.03
636.165	-0.04
636.496	-0.04
636.827	-0.05
637.159	-0.04
637.49	-0.04
637.821	-0.05
638.152	-0.03
638.483	-0.03
638.814	-0.05
639.145	-0.05
639.476	-0.04
639.807	-0.05
640.137	-0.05
640.468	-0.03
640.799	-0.05
641.129	-0.05
641.46	-0.05
641.791	-0.05
642.121	-0.06
642.451	-0.05
642.782	-0.06
643.112	-0.05
643.442	-0.06
643.773	-0.05
644.103	-0.05
644.433	-0.04
644.763	-0.03
645.093	-0.04
645.423	-0.04
645.753	-0.05
646.082	-0.05
646.412	-0.04
646.742	-0.04
647.072	-0.05
647.401	-0.04
647.731	-0.05
648.06	-0.03
648.39	-0.04
648.719	-0.03
649.048	-0.04
649.378	-0.03
649.707	-0.04
650.036	-0.04
650.365	-0.04
650.694	-0.03
651.023	-0.04
651.352	-0.03
651.681	-0.04
652.01	-0.03
652.339	-0.03
652.668	-0.04
