Data from c2t_JH05_50uM_Absorbance_11-14-32-030.txt Node
Date: Thu Dec 21 11:14:32 GMT 2017
User: egn-admin
Spectrometer: OFX00224
Trigger mode: 0
Integration Time (sec): 5.000000E-2
Scans to average: 1
Nonlinearity correction enabled: false
Boxcar width: 0
Storing dark spectrum: false
XAxis mode: Wavelengths
Number of Pixels in Spectrum: 2136
>>>>>Begin Spectral Data<<<<<
154.91	0.74
155.289	0.07
155.669	0.72
156.048	0.8
156.428	-0
156.807	-0
157.186	-0
157.566	0.04
157.945	0.11
158.325	-0.81
158.704	-0
159.083	-0
159.462	0.33
159.842	-0
160.221	-0
160.6	0.6
160.979	-0.65
161.359	-0
161.738	-0
162.117	-0.06
162.496	-0
162.875	-0.37
163.254	-0.15
163.633	-0.08
164.012	-0.4
164.391	-1.15
164.77	-0
165.149	0.04
165.528	-0
165.907	-1.15
166.286	-0.2
166.665	-0
167.044	0.18
167.423	-0.13
167.802	-0
168.181	-0
168.559	-0
168.938	0.85
169.317	0.92
169.696	0.05
170.074	0.62
170.453	-0.35
170.832	-0
171.21	0.19
171.589	0.54
171.968	-0.28
172.346	-0
172.725	-0.08
173.103	-0
173.482	0.24
173.861	-0
174.239	-0
174.617	-0.06
174.996	-0
175.374	-0.78
175.753	-0.85
176.131	-0
176.51	-0
176.888	-0.15
177.266	0.16
177.645	0.35
178.023	-0.12
178.401	-0
178.779	0.7
179.158	-0.13
179.536	-0
179.914	-0.5
180.292	-0
180.67	-0.03
181.048	0.04
181.427	-0.44
181.805	0.85
182.183	-0
182.561	-0
182.939	-0.23
183.317	-0.48
183.695	-0.22
184.073	-0
184.451	-0
184.829	-0
185.206	0.24
185.584	-0.65
185.962	-0
186.34	-0
186.718	-0.26
187.096	-0
187.473	1.28
187.851	-0.12
188.229	-0.3
188.607	0.15
188.984	0.15
189.362	0.25
189.74	0.04
190.117	0.12
190.495	-0.01
190.872	0.4
191.25	0.18
191.627	0.03
192.005	0.1
192.382	1.11
192.76	-0.01
193.137	0.57
193.515	-0.35
193.892	-0
194.269	0.22
194.647	0.2
195.024	0.35
195.401	0.03
195.779	0.05
196.156	-0.06
196.533	-0.14
196.91	0.17
197.288	-0
197.665	-1.41
198.042	0.25
198.419	-0.15
198.796	-0.04
199.173	-0.33
199.55	-0.76
199.927	-0.12
200.304	-0.15
200.681	-0.49
201.058	0.18
201.435	0.21
201.812	-0.09
202.189	0.09
202.566	0.19
202.943	0.19
203.32	0.2
203.697	0.17
204.073	-0.06
204.45	0.3
204.827	0.25
205.204	-0.04
205.58	0.04
205.957	0.15
206.334	0.28
206.71	0.94
207.087	0.09
207.464	-0.1
207.84	0.2
208.217	-0.1
208.593	-0.23
208.97	0.28
209.346	0.02
209.723	-0.09
210.099	0.45
210.476	-0.22
210.852	0.17
211.228	-0.1
211.605	0.12
211.981	0.34
212.357	0.64
212.733	0.22
213.11	0.19
213.486	0.13
213.862	-0.02
214.238	0.08
214.614	-0.18
214.991	-0.03
215.367	-0
215.743	0.37
216.119	0.32
216.495	-0.08
216.871	0.1
217.247	0.19
217.623	0.03
217.999	-0.15
218.375	0.67
218.751	0.82
219.127	0.54
219.502	0.09
219.878	-0.11
220.254	-0.03
220.63	0.12
221.006	0.11
221.381	-0.04
221.757	0.08
222.133	-0.06
222.508	0.89
222.884	0.02
223.26	-0.14
223.635	-0.16
224.011	0.09
224.386	0.36
224.762	0.1
225.137	0.34
225.513	0.06
225.888	-0.63
226.264	0.08
226.639	0.1
227.014	-0.1
227.39	0.23
227.765	0.29
228.14	0.1
228.516	0.17
228.891	0.12
229.266	0.06
229.641	-0
230.017	0.43
230.392	-0.06
230.767	-0.15
231.142	-0.1
231.517	0.34
231.892	0.28
232.267	0.29
232.642	0.18
233.017	0.06
233.392	0.94
233.767	0.14
234.142	-0.11
234.517	0.13
234.892	0.38
235.267	0.15
235.641	-0.13
236.016	0.15
236.391	-0.14
236.766	-0.32
237.14	0.34
237.515	0.15
237.89	0.17
238.264	0.33
238.639	0.23
239.014	0.1
239.388	0.12
239.763	0.26
240.137	0.11
240.512	-0
240.886	0.28
241.261	0.25
241.635	0.17
242.009	0.25
242.384	-0.09
242.758	0.22
243.132	0.01
243.507	0.23
243.881	0.27
244.255	-0.09
244.629	-0.05
245.004	0.49
245.378	0.35
245.752	0.26
246.126	-0.11
246.5	0.25
246.874	0.18
247.248	0.2
247.622	-0.11
247.996	0.09
248.37	0.33
248.744	0.46
249.118	0.1
249.492	-0
249.866	0.25
250.24	0.2
250.613	0.07
250.987	0.15
251.361	0.18
251.735	0.32
252.108	0.21
252.482	0.14
252.856	0.25
253.229	0.24
253.603	0.06
253.977	0.26
254.35	0.12
254.724	0.2
255.097	0.61
255.471	0.14
255.844	0.19
256.218	0.15
256.591	0.34
256.964	0.22
257.338	0.25
257.711	0.41
258.084	0.3
258.458	0.25
258.831	0.26
259.204	0.31
259.577	0.28
259.95	0.13
260.323	0.26
260.697	0.3
261.07	0.23
261.443	0.26
261.816	0.28
262.189	0.23
262.562	0.21
262.935	0.24
263.308	0.25
263.68	0.17
264.053	0.21
264.426	0.26
264.799	0.26
265.172	0.22
265.545	0.22
265.917	0.24
266.29	0.24
266.663	0.17
267.035	0.22
267.408	0.24
267.781	0.19
268.153	0.18
268.526	0.18
268.898	0.15
269.271	0.16
269.643	0.19
270.016	0.21
270.388	0.17
270.76	0.17
271.133	0.16
271.505	0.14
271.877	0.15
272.25	0.16
272.622	0.16
272.994	0.14
273.366	0.15
273.739	0.16
274.111	0.18
274.483	0.15
274.855	0.16
275.227	0.16
275.599	0.17
275.971	0.16
276.343	0.15
276.715	0.14
277.087	0.17
277.459	0.16
277.831	0.18
278.203	0.14
278.574	0.18
278.946	0.14
279.318	0.17
279.69	0.16
280.061	0.16
280.433	0.17
280.805	0.17
281.176	0.15
281.548	0.17
281.92	0.18
282.291	0.18
282.663	0.17
283.034	0.19
283.406	0.18
283.777	0.18
284.148	0.17
284.52	0.18
284.891	0.19
285.262	0.2
285.634	0.2
286.005	0.21
286.376	0.19
286.747	0.21
287.119	0.22
287.49	0.22
287.861	0.22
288.232	0.21
288.603	0.23
288.974	0.23
289.345	0.23
289.716	0.24
290.087	0.24
290.458	0.24
290.829	0.24
291.2	0.23
291.571	0.25
291.941	0.24
292.312	0.25
292.683	0.25
293.054	0.24
293.424	0.27
293.795	0.26
294.166	0.26
294.536	0.26
294.907	0.27
295.277	0.27
295.648	0.27
296.018	0.28
296.389	0.27
296.759	0.28
297.13	0.27
297.5	0.27
297.871	0.27
298.241	0.27
298.611	0.29
298.981	0.28
299.352	0.29
299.722	0.3
300.092	0.3
300.462	0.3
300.832	0.31
301.202	0.3
301.573	0.32
301.943	0.32
302.313	0.31
302.683	0.31
303.053	0.32
303.422	0.34
303.792	0.32
304.162	0.34
304.532	0.34
304.902	0.35
305.272	0.34
305.641	0.35
306.011	0.36
306.381	0.35
306.75	0.36
307.12	0.36
307.49	0.37
307.859	0.36
308.229	0.38
308.598	0.38
308.968	0.38
309.337	0.38
309.707	0.38
310.076	0.39
310.445	0.4
310.815	0.39
311.184	0.39
311.553	0.4
311.923	0.4
312.292	0.4
312.661	0.41
313.03	0.42
313.399	0.43
313.768	0.42
314.137	0.42
314.506	0.42
314.875	0.43
315.244	0.44
315.613	0.44
315.982	0.45
316.351	0.44
316.72	0.44
317.089	0.47
317.458	0.44
317.826	0.47
318.195	0.47
318.564	0.47
318.933	0.48
319.301	0.48
319.67	0.48
320.038	0.49
320.407	0.49
320.775	0.5
321.144	0.5
321.512	0.5
321.881	0.52
322.249	0.51
322.618	0.52
322.986	0.52
323.354	0.52
323.723	0.53
324.091	0.54
324.459	0.54
324.827	0.53
325.195	0.53
325.564	0.53
325.932	0.55
326.3	0.56
326.668	0.55
327.036	0.57
327.404	0.54
327.772	0.58
328.14	0.56
328.508	0.56
328.875	0.59
329.243	0.6
329.611	0.6
329.979	0.6
330.346	0.59
330.714	0.59
331.082	0.59
331.449	0.59
331.817	0.59
332.185	0.6
332.552	0.61
332.92	0.61
333.287	0.64
333.655	0.63
334.022	0.64
334.389	0.64
334.757	0.65
335.124	0.64
335.491	0.64
335.859	0.65
336.226	0.66
336.593	0.65
336.96	0.65
337.327	0.66
337.695	0.67
338.062	0.66
338.429	0.66
338.796	0.68
339.163	0.68
339.53	0.67
339.897	0.67
340.263	0.67
340.63	0.68
340.997	0.67
341.364	0.68
341.731	0.68
342.097	0.69
342.464	0.67
342.831	0.68
343.197	0.7
343.564	0.69
343.931	0.69
344.297	0.69
344.664	0.69
345.03	0.69
345.396	0.69
345.763	0.7
346.129	0.69
346.496	0.7
346.862	0.7
347.228	0.7
347.594	0.69
347.961	0.71
348.327	0.7
348.693	0.7
349.059	0.69
349.425	0.71
349.791	0.71
350.157	0.71
350.523	0.7
350.889	0.71
351.255	0.71
351.621	0.7
351.987	0.69
352.353	0.71
352.719	0.71
353.084	0.69
353.45	0.71
353.816	0.72
354.181	0.71
354.547	0.69
354.913	0.71
355.278	0.69
355.644	0.69
356.009	0.68
356.375	0.67
356.74	0.67
357.106	0.68
357.471	0.67
357.836	0.67
358.202	0.67
358.567	0.67
358.932	0.66
359.297	0.64
359.663	0.67
360.028	0.65
360.393	0.65
360.758	0.65
361.123	0.65
361.488	0.65
361.853	0.65
362.218	0.64
362.583	0.63
362.948	0.63
363.312	0.62
363.677	0.63
364.042	0.61
364.407	0.6
364.772	0.61
365.136	0.59
365.501	0.61
365.865	0.59
366.23	0.58
366.595	0.59
366.959	0.59
367.324	0.59
367.688	0.57
368.052	0.56
368.417	0.57
368.781	0.57
369.145	0.58
369.51	0.54
369.874	0.56
370.238	0.55
370.602	0.52
370.967	0.51
371.331	0.53
371.695	0.54
372.059	0.51
372.423	0.53
372.787	0.52
373.151	0.51
373.515	0.5
373.878	0.5
374.242	0.5
374.606	0.5
374.97	0.49
375.334	0.47
375.697	0.46
376.061	0.47
376.425	0.46
376.788	0.46
377.152	0.44
377.515	0.46
377.879	0.44
378.242	0.43
378.606	0.42
378.969	0.41
379.333	0.42
379.696	0.41
380.059	0.41
380.422	0.4
380.786	0.4
381.149	0.39
381.512	0.38
381.875	0.37
382.238	0.37
382.601	0.36
382.964	0.34
383.327	0.35
383.69	0.34
384.053	0.35
384.416	0.33
384.779	0.33
385.142	0.33
385.504	0.31
385.867	0.31
386.23	0.31
386.593	0.3
386.955	0.3
387.318	0.3
387.68	0.29
388.043	0.29
388.405	0.3
388.768	0.29
389.13	0.27
389.493	0.26
389.855	0.27
390.217	0.26
390.58	0.26
390.942	0.25
391.304	0.25
391.666	0.24
392.028	0.24
392.391	0.24
392.753	0.23
393.115	0.23
393.477	0.23
393.839	0.23
394.201	0.22
394.563	0.23
394.924	0.22
395.286	0.22
395.648	0.22
396.01	0.2
396.371	0.22
396.733	0.21
397.095	0.21
397.456	0.21
397.818	0.21
398.18	0.2
398.541	0.19
398.903	0.19
399.264	0.19
399.625	0.2
399.987	0.19
400.348	0.19
400.709	0.19
401.071	0.18
401.432	0.18
401.793	0.19
402.154	0.17
402.515	0.18
402.876	0.19
403.238	0.19
403.599	0.18
403.96	0.18
404.32	0.18
404.681	0.19
405.042	0.19
405.403	0.17
405.764	0.18
406.125	0.19
406.485	0.19
406.846	0.19
407.207	0.18
407.567	0.18
407.928	0.18
408.288	0.18
408.649	0.18
409.009	0.18
409.37	0.17
409.73	0.18
410.091	0.16
410.451	0.15
410.811	0.17
411.171	0.16
411.532	0.16
411.892	0.17
412.252	0.16
412.612	0.17
412.972	0.17
413.332	0.16
413.692	0.16
414.052	0.17
414.412	0.17
414.772	0.17
415.132	0.17
415.492	0.18
415.851	0.18
416.211	0.18
416.571	0.16
416.931	0.18
417.29	0.17
417.65	0.16
418.009	0.18
418.369	0.17
418.728	0.18
419.088	0.17
419.447	0.16
419.807	0.17
420.166	0.15
420.525	0.17
420.884	0.17
421.244	0.17
421.603	0.17
421.962	0.16
422.321	0.18
422.68	0.17
423.039	0.17
423.398	0.15
423.757	0.15
424.116	0.16
424.475	0.17
424.834	0.17
425.193	0.16
425.551	0.15
425.91	0.17
426.269	0.17
426.628	0.17
426.986	0.15
427.345	0.16
427.703	0.16
428.062	0.17
428.42	0.17
428.779	0.15
429.137	0.17
429.496	0.17
429.854	0.17
430.212	0.17
430.57	0.16
430.929	0.15
431.287	0.15
431.645	0.15
432.003	0.15
432.361	0.15
432.719	0.15
433.077	0.15
433.435	0.15
433.793	0.15
434.151	0.14
434.509	0.14
434.866	0.16
435.224	0.16
435.582	0.15
435.94	0.14
436.297	0.15
436.655	0.15
437.012	0.15
437.37	0.15
437.727	0.16
438.085	0.16
438.442	0.14
438.8	0.15
439.157	0.14
439.514	0.16
439.872	0.14
440.229	0.13
440.586	0.15
440.943	0.13
441.3	0.12
441.657	0.13
442.014	0.13
442.371	0.14
442.728	0.14
443.085	0.15
443.442	0.14
443.799	0.13
444.156	0.14
444.513	0.12
444.869	0.13
445.226	0.14
445.583	0.13
445.939	0.13
446.296	0.13
446.652	0.14
447.009	0.12
447.365	0.12
447.722	0.12
448.078	0.12
448.434	0.12
448.791	0.13
449.147	0.11
449.503	0.11
449.859	0.11
450.215	0.11
450.571	0.11
450.928	0.1
451.284	0.11
451.64	0.11
451.995	0.11
452.351	0.11
452.707	0.11
453.063	0.11
453.419	0.11
453.775	0.1
454.13	0.1
454.486	0.11
454.842	0.11
455.197	0.09
455.553	0.09
455.908	0.08
456.264	0.1
456.619	0.09
456.975	0.1
457.33	0.09
457.685	0.09
458.04	0.09
458.396	0.08
458.751	0.09
459.106	0.09
459.461	0.09
459.816	0.08
460.171	0.08
460.526	0.08
460.881	0.08
461.236	0.08
461.591	0.07
461.946	0.08
462.301	0.08
462.655	0.06
463.01	0.06
463.365	0.08
463.719	0.05
464.074	0.06
464.428	0.06
464.783	0.06
465.137	0.04
465.492	0.06
465.846	0.05
466.201	0.05
466.555	0.05
466.909	0.05
467.263	0.05
467.618	0.05
467.972	0.05
468.326	0.04
468.68	0.04
469.034	0.04
469.388	0.04
469.742	0.04
470.096	0.03
470.45	0.04
470.804	0.03
471.157	0.03
471.511	0.03
471.865	0.04
472.218	0.03
472.572	0.04
472.926	0.02
473.279	0.03
473.633	0.03
473.986	0.02
474.34	0.02
474.693	0.02
475.046	0.02
475.4	0.02
475.753	0.02
476.106	0.01
476.459	0.02
476.812	0.02
477.165	0.01
477.519	0.02
477.872	0.02
478.224	0.01
478.577	0.02
478.93	0.02
479.283	0.03
479.636	0.01
479.989	0.01
480.341	0.01
480.694	0.02
481.047	0.01
481.399	0.01
481.752	0.01
482.104	0.01
482.457	0
482.809	0.01
483.162	0.01
483.514	-0
483.866	-0
484.219	-0
484.571	0
484.923	0
485.275	0.02
485.627	0
485.979	0.01
486.331	0.01
486.683	0.01
487.035	0.01
487.387	0.01
487.739	0.01
488.091	0
488.443	0
488.794	-0
489.146	-0.01
489.498	0
489.849	-0.01
490.201	-0.01
490.552	-0.01
490.904	-0
491.255	-0.01
491.607	-0.01
491.958	0.01
492.309	-0.01
492.661	-0
493.012	-0
493.363	0.01
493.714	-0.01
494.065	-0.01
494.416	0.01
494.767	-0.01
495.118	-0
495.469	-0.01
495.82	0.01
496.171	0.01
496.522	-0.01
496.872	0.01
497.223	-0.01
497.574	-0.01
497.924	-0.01
498.275	0.01
498.626	0.01
498.976	-0.01
499.327	-0
499.677	-0.01
500.027	-0.01
500.378	-0.01
500.728	-0.02
501.078	-0
501.428	-0.01
501.779	-0.01
502.129	-0.02
502.479	-0.01
502.829	-0.01
503.179	-0.02
503.529	-0.01
503.879	-0
504.229	-0
504.578	-0.02
504.928	-0.01
505.278	-0.01
505.628	-0.02
505.977	-0.02
506.327	-0.02
506.676	-0.01
507.026	-0.01
507.375	-0.03
507.725	-0.03
508.074	-0.01
508.424	-0.02
508.773	-0.02
509.122	-0.02
509.471	-0.02
509.82	-0.02
510.17	-0.01
510.519	-0.01
510.868	-0.03
511.217	-0.01
511.566	-0.02
511.915	-0.01
512.263	-0.01
512.612	-0.01
512.961	0
513.31	-0
513.659	-0.01
514.007	-0.03
514.356	-0.02
514.704	-0.02
515.053	-0.01
515.401	-0.03
515.75	-0.03
516.098	-0.03
516.447	-0.03
516.795	-0.03
517.143	-0.04
517.491	-0.03
517.839	-0.03
518.188	-0.02
518.536	-0.03
518.884	-0.02
519.232	-0.03
519.58	-0.02
519.928	-0.02
520.275	-0.01
520.623	-0.02
520.971	-0.02
521.319	-0.02
521.666	-0.03
522.014	-0.04
522.362	-0.02
522.709	-0.02
523.057	-0.04
523.404	-0.02
523.752	-0.02
524.099	-0.02
524.446	-0.02
524.794	-0.05
525.141	-0.02
525.488	-0.02
525.835	-0.02
526.182	-0.03
526.529	-0.03
526.876	-0.04
527.223	-0.03
527.57	-0.04
527.917	-0.01
528.264	-0.03
528.611	-0.03
528.958	-0.02
529.304	-0.03
529.651	-0.05
529.998	-0.03
530.344	-0.05
530.691	-0.03
531.037	-0.03
531.384	-0.03
531.73	-0.03
532.076	-0.03
532.423	-0.03
532.769	-0.03
533.115	-0.01
533.461	-0.03
533.807	-0.02
534.154	-0.01
534.5	-0.01
534.846	-0.02
535.192	-0.03
535.537	-0.03
535.883	-0.03
536.229	-0.04
536.575	-0.03
536.921	-0.03
537.266	-0.03
537.612	-0.02
537.957	-0.01
538.303	-0.03
538.649	-0.03
538.994	-0.04
539.339	-0.04
539.685	-0.02
540.03	-0.03
540.375	-0.02
540.721	-0.03
541.066	-0.03
541.411	-0.03
541.756	-0.03
542.101	-0.01
542.446	-0.02
542.791	-0.02
543.136	-0.03
543.481	-0.02
543.825	-0.03
544.17	-0.04
544.515	-0.02
544.86	-0.03
545.204	-0.03
545.549	-0.03
545.893	-0.05
546.238	-0.04
546.582	-0.02
546.927	-0.04
547.271	-0.03
547.615	-0.03
547.96	-0.03
548.304	-0.03
548.648	-0.04
548.992	-0.03
549.336	-0.04
549.68	-0.03
550.024	-0.04
550.368	-0.02
550.712	-0.03
551.056	-0.03
551.4	-0.03
551.743	-0.02
552.087	-0.01
552.431	-0.03
552.774	-0.02
553.118	-0.03
553.462	-0.03
553.805	-0.03
554.148	-0.03
554.492	-0.03
554.835	-0.03
555.178	-0.02
555.522	-0.04
555.865	-0.03
556.208	-0.04
556.551	-0.03
556.894	-0.04
557.237	-0.03
557.58	-0.04
557.923	-0.03
558.266	-0.03
558.609	-0.03
558.952	-0.04
559.294	-0.03
559.637	-0.05
559.98	-0.04
560.322	-0.03
560.665	-0.05
561.007	-0.02
561.35	-0.05
561.692	-0.02
562.034	-0.04
562.377	-0.02
562.719	-0.03
563.061	-0.02
563.403	-0.02
563.745	-0.02
564.088	-0.03
564.43	-0.02
564.772	-0.04
565.113	-0.02
565.455	-0.03
565.797	-0.03
566.139	-0.04
566.481	-0.02
566.822	-0.03
567.164	-0.03
567.506	-0.04
567.847	-0.03
568.189	-0.01
568.53	-0.03
568.872	-0.03
569.213	-0.03
569.554	-0.03
569.895	-0.02
570.237	-0.03
570.578	-0.03
570.919	-0.03
571.26	-0.03
571.601	-0.03
571.942	-0.02
572.283	-0.04
572.624	-0.03
572.965	-0.03
573.306	-0.03
573.646	-0.03
573.987	-0.03
574.328	-0.04
574.668	-0.04
575.009	-0.04
575.349	-0.04
575.69	-0.02
576.03	-0.03
576.37	-0.03
576.711	-0.03
577.051	-0.03
577.391	-0.02
577.731	-0.04
578.072	-0.02
578.412	-0.03
578.752	-0.03
579.092	-0.02
579.431	-0.02
579.771	-0.02
580.111	-0.02
580.451	-0.02
580.791	-0.03
581.13	-0.02
581.47	-0.03
581.81	-0.03
582.149	-0.03
582.489	-0.04
582.828	-0.03
583.167	-0.03
583.507	-0.02
583.846	-0.03
584.185	-0.02
584.525	-0.02
584.864	-0.03
585.203	-0.03
585.542	-0.03
585.881	-0.03
586.22	-0.02
586.559	-0.03
586.898	-0.02
587.236	-0.03
587.575	-0.03
587.914	-0.04
588.252	-0.04
588.591	-0.03
588.93	-0.02
589.268	-0.03
589.607	-0.03
589.945	-0.02
590.283	-0.02
590.622	-0.02
590.96	-0.03
591.298	-0.04
591.636	-0.03
591.974	-0.04
592.313	-0.03
592.651	-0.04
592.989	-0.05
593.326	-0.03
593.664	-0.04
594.002	-0.04
594.34	-0.04
594.678	-0.04
595.015	-0.04
595.353	-0.03
595.691	-0.02
596.028	-0.04
596.366	-0.04
596.703	-0.03
597.04	-0.04
597.378	-0.02
597.715	-0.05
598.052	-0.04
598.389	-0.05
598.726	-0.04
599.064	-0.04
599.401	-0.04
599.738	-0.04
600.074	-0.05
600.411	-0.05
600.748	-0.04
601.085	-0.03
601.422	-0.04
601.758	-0.03
602.095	-0.02
602.432	-0.02
602.768	-0.03
603.105	-0.03
603.441	-0.03
603.777	-0.02
604.114	-0.02
604.45	-0.03
604.786	-0.02
605.122	-0.02
605.459	-0.03
605.795	-0.03
606.131	-0.02
606.467	-0.03
606.803	-0.03
607.139	-0.03
607.474	-0.03
607.81	-0.03
608.146	-0.03
608.482	-0.04
608.817	-0.04
609.153	-0.03
609.488	-0.04
609.824	-0.03
610.159	-0.04
610.495	-0.04
610.83	-0.04
611.165	-0.04
611.5	-0.05
611.836	-0.03
612.171	-0.04
612.506	-0.04
612.841	-0.04
613.176	-0.04
613.511	-0.03
613.845	-0.05
614.18	-0.02
614.515	-0.05
614.85	-0.04
615.184	-0.03
615.519	-0.03
615.854	-0.03
616.188	-0.04
616.523	-0.04
616.857	-0.03
617.191	-0.03
617.526	-0.03
617.86	-0.03
618.194	-0.03
618.528	-0.03
618.862	-0.05
619.196	-0.05
619.53	-0.03
619.864	-0.05
620.198	-0.03
620.532	-0.03
620.866	-0.04
621.2	-0.04
621.533	-0.04
621.867	-0.04
622.201	-0.02
622.534	-0.04
622.868	-0.02
623.201	-0.03
623.534	-0.03
623.868	-0.03
624.201	-0.04
624.534	-0.03
624.868	-0.03
625.201	-0.03
625.534	-0.03
625.867	-0.03
626.2	-0.03
626.533	-0.03
626.865	-0.05
627.198	-0.05
627.531	-0.04
627.864	-0.04
628.196	-0.04
628.529	-0.04
628.862	-0.04
629.194	-0.04
629.527	-0.04
629.859	-0.05
630.191	-0.05
630.524	-0.04
630.856	-0.05
631.188	-0.03
631.52	-0.04
631.852	-0.04
632.184	-0.04
632.516	-0.03
632.848	-0.05
633.18	-0.05
633.512	-0.04
633.844	-0.05
634.175	-0.05
634.507	-0.05
634.839	-0.05
635.17	-0.04
635.502	-0.03
635.833	-0.04
636.165	-0.03
636.496	-0.04
636.827	-0.05
637.159	-0.04
637.49	-0.04
637.821	-0.05
638.152	-0.04
638.483	-0.03
638.814	-0.04
639.145	-0.05
639.476	-0.06
639.807	-0.05
640.137	-0.05
640.468	-0.04
640.799	-0.04
641.129	-0.06
641.46	-0.05
641.791	-0.05
642.121	-0.07
642.451	-0.05
642.782	-0.07
643.112	-0.06
643.442	-0.05
643.773	-0.05
644.103	-0.05
644.433	-0.04
644.763	-0.04
645.093	-0.04
645.423	-0.05
645.753	-0.05
646.082	-0.05
646.412	-0.03
646.742	-0.04
647.072	-0.05
647.401	-0.03
647.731	-0.04
648.06	-0.03
648.39	-0.04
648.719	-0.03
649.048	-0.04
649.378	-0.04
649.707	-0.05
650.036	-0.04
650.365	-0.04
650.694	-0.04
651.023	-0.03
651.352	-0.04
651.681	-0.04
652.01	-0.04
