Data from c2t_JH05_50uM_Absorbance_11-14-52-051.txt Node
Date: Thu Dec 21 11:14:52 GMT 2017
User: egn-admin
Spectrometer: OFX00224
Trigger mode: 0
Integration Time (sec): 5.000000E-2
Scans to average: 1
Nonlinearity correction enabled: false
Boxcar width: 0
Storing dark spectrum: false
XAxis mode: Wavelengths
Number of Pixels in Spectrum: 2136
>>>>>Begin Spectral Data<<<<<
154.91	0.74
155.289	0.38
155.669	0.02
156.048	0.28
156.428	-0
156.807	0.35
157.186	-0
157.566	-0.22
157.945	-0
158.325	-0.9
158.704	0.18
159.083	-0
159.462	0.12
159.842	-0.6
160.221	-0
160.6	-0
160.979	-0
161.359	-0
161.738	-0
162.117	0.15
162.496	-0
162.875	-0
163.254	-0.12
163.633	-0.11
164.012	-0
164.391	-0.9
164.77	-0
165.149	-0.07
165.528	0.24
165.907	-1.04
166.286	-0
166.665	0.88
167.044	-0.04
167.423	-0.16
167.802	-0
168.181	-0
168.559	-0
168.938	-0
169.317	-0.13
169.696	-0.19
170.074	-0
170.453	-0.57
170.832	-0
171.21	-0.25
171.589	0.12
171.968	-0
172.346	-0
172.725	0.3
173.103	0.05
173.482	0.05
173.861	-0
174.239	-0.2
174.617	0.07
174.996	0.22
175.374	-1.04
175.753	-0.7
176.131	-0
176.51	-0.07
176.888	0.1
177.266	-0.07
177.645	0.3
178.023	-0.05
178.401	0.3
178.779	-0.23
179.158	-0.19
179.536	-0
179.914	-0.18
180.292	-0.4
180.67	0.05
181.048	0.78
181.427	-0.85
181.805	0.1
182.183	0.35
182.561	-0
182.939	-0.23
183.317	0.07
183.695	-0
184.073	-0.26
184.451	-0
184.829	-0.06
185.206	0.07
185.584	-0.41
185.962	-0
186.34	-0.15
186.718	0.16
187.096	0.51
187.473	-0
187.851	-0.43
188.229	-0
188.607	1.38
188.984	0.22
189.362	-0.2
189.74	-0.13
190.117	0.51
190.495	0.03
190.872	0.13
191.25	0.07
191.627	0.41
192.005	1.24
192.382	0.07
192.76	-0.07
193.137	-0.26
193.515	0.12
193.892	0.89
194.269	0.07
194.647	-0.04
195.024	0.21
195.401	0.44
195.779	0.21
196.156	0.12
196.533	-0.26
196.91	-0.29
197.288	-0.64
197.665	-1.23
198.042	0.18
198.419	0.26
198.796	0.19
199.173	0.19
199.55	-0
199.927	-0.28
200.304	-0.08
200.681	0.06
201.058	0.2
201.435	0.13
201.812	-0.13
202.189	0.19
202.566	0.08
202.943	0.23
203.32	0.22
203.697	0.09
204.073	0.21
204.45	0.83
204.827	0.11
205.204	-0
205.58	0.34
205.957	0.56
206.334	0.52
206.71	1.41
207.087	0.1
207.464	0.75
207.84	0.05
208.217	-0.05
208.593	-0.11
208.97	0.04
209.346	0.21
209.723	0.1
210.099	-0
210.476	-0.13
210.852	-0.04
211.228	0.09
211.605	-0.01
211.981	0.31
212.357	-0
212.733	0.1
213.11	0.21
213.486	0.4
213.862	-0.14
214.238	0.14
214.614	-0.03
214.991	0.15
215.367	0.5
215.743	-0.15
216.119	0.05
216.495	-0.09
216.871	0.45
217.247	1.05
217.623	0.15
217.999	0.85
218.375	0.01
218.751	0.62
219.127	0.25
219.502	0.05
219.878	-0.08
220.254	-0.03
220.63	-0
221.006	0.14
221.381	0.21
221.757	0.14
222.133	0.24
222.508	0.29
222.884	0.43
223.26	-0.01
223.635	-0.03
224.011	0.15
224.386	0.09
224.762	0.22
225.137	0.64
225.513	0.58
225.888	-0.4
226.264	0.27
226.639	0.47
227.014	0.02
227.39	0.11
227.765	0.1
228.14	0.34
228.516	0.18
228.891	-0.14
229.266	0.25
229.641	-0
230.017	0.21
230.392	0.02
230.767	-0.11
231.142	0.06
231.517	0.37
231.892	0.1
232.267	0.21
232.642	1.32
233.017	0.5
233.392	0.45
233.767	0.19
234.142	-0
234.517	0.13
234.892	0.65
235.267	0.2
235.641	-0
236.016	0.33
236.391	-0.03
236.766	-0.14
237.14	0.52
237.515	0.27
237.89	0.15
238.264	0.29
238.639	0.32
239.014	0.02
239.388	0.17
239.763	0.09
240.137	0.29
240.512	0.4
240.886	0.09
241.261	0.44
241.635	-0.11
242.009	0.1
242.384	-0.01
242.758	0.02
243.132	0.07
243.507	0.16
243.881	0.28
244.255	0.05
244.629	-0.11
245.004	0.53
245.378	0.21
245.752	0.56
246.126	-0.14
246.5	0.25
246.874	0.16
247.248	0.21
247.622	0.31
247.996	0.02
248.37	0.29
248.744	0.6
249.118	0.19
249.492	-0
249.866	0.33
250.24	0.13
250.613	0.22
250.987	0.05
251.361	0.41
251.735	-0.05
252.108	-0.03
252.482	0.36
252.856	0.39
253.229	0.11
253.603	0.1
253.977	0.12
254.35	0.09
254.724	0.14
255.097	0.49
255.471	0.35
255.844	0.24
256.218	0.1
256.591	0.24
256.964	0.13
257.338	0.23
257.711	0.34
258.084	0.37
258.458	0.27
258.831	0.43
259.204	0.21
259.577	0.36
259.95	0.14
260.323	0.33
260.697	0.13
261.07	0.22
261.443	0.26
261.816	0.26
262.189	0.26
262.562	0.26
262.935	0.27
263.308	0.24
263.68	0.16
264.053	0.24
264.426	0.22
264.799	0.24
265.172	0.23
265.545	0.17
265.917	0.23
266.29	0.16
266.663	0.21
267.035	0.18
267.408	0.18
267.781	0.18
268.153	0.18
268.526	0.17
268.898	0.14
269.271	0.15
269.643	0.14
270.016	0.2
270.388	0.15
270.76	0.15
271.133	0.14
271.505	0.13
271.877	0.13
272.25	0.14
272.622	0.14
272.994	0.16
273.366	0.14
273.739	0.15
274.111	0.13
274.483	0.14
274.855	0.16
275.227	0.17
275.599	0.15
275.971	0.16
276.343	0.15
276.715	0.14
277.087	0.17
277.459	0.14
277.831	0.17
278.203	0.16
278.574	0.17
278.946	0.14
279.318	0.15
279.69	0.17
280.061	0.17
280.433	0.15
280.805	0.16
281.176	0.16
281.548	0.17
281.92	0.14
282.291	0.17
282.663	0.17
283.034	0.17
283.406	0.17
283.777	0.16
284.148	0.17
284.52	0.18
284.891	0.18
285.262	0.19
285.634	0.19
286.005	0.2
286.376	0.2
286.747	0.2
287.119	0.19
287.49	0.21
287.861	0.21
288.232	0.2
288.603	0.23
288.974	0.22
289.345	0.21
289.716	0.24
290.087	0.22
290.458	0.22
290.829	0.22
291.2	0.23
291.571	0.24
291.941	0.23
292.312	0.23
292.683	0.24
293.054	0.23
293.424	0.25
293.795	0.25
294.166	0.24
294.536	0.23
294.907	0.25
295.277	0.25
295.648	0.26
296.018	0.27
296.389	0.27
296.759	0.26
297.13	0.26
297.5	0.25
297.871	0.26
298.241	0.28
298.611	0.27
298.981	0.28
299.352	0.28
299.722	0.28
300.092	0.28
300.462	0.29
300.832	0.3
301.202	0.3
301.573	0.3
301.943	0.3
302.313	0.31
302.683	0.32
303.053	0.3
303.422	0.32
303.792	0.31
304.162	0.33
304.532	0.34
304.902	0.34
305.272	0.33
305.641	0.35
306.011	0.35
306.381	0.36
306.75	0.34
307.12	0.35
307.49	0.38
307.859	0.36
308.229	0.37
308.598	0.38
308.968	0.39
309.337	0.38
309.707	0.37
310.076	0.39
310.445	0.4
310.815	0.4
311.184	0.4
311.553	0.42
311.923	0.42
312.292	0.41
312.661	0.42
313.03	0.43
313.399	0.45
313.768	0.42
314.137	0.44
314.506	0.45
314.875	0.45
315.244	0.46
315.613	0.46
315.982	0.46
316.351	0.46
316.72	0.47
317.089	0.49
317.458	0.47
317.826	0.51
318.195	0.5
318.564	0.51
318.933	0.51
319.301	0.52
319.67	0.52
320.038	0.53
320.407	0.53
320.775	0.54
321.144	0.54
321.512	0.55
321.881	0.57
322.249	0.56
322.618	0.56
322.986	0.57
323.354	0.57
323.723	0.59
324.091	0.6
324.459	0.6
324.827	0.6
325.195	0.61
325.564	0.6
325.932	0.62
326.3	0.62
326.668	0.63
327.036	0.63
327.404	0.66
327.772	0.64
328.14	0.65
328.508	0.65
328.875	0.66
329.243	0.71
329.611	0.7
329.979	0.69
330.346	0.69
330.714	0.68
331.082	0.68
331.449	0.68
331.817	0.7
332.185	0.71
332.552	0.73
332.92	0.71
333.287	0.75
333.655	0.75
334.022	0.76
334.389	0.75
334.757	0.76
335.124	0.78
335.491	0.76
335.859	0.78
336.226	0.78
336.593	0.78
336.96	0.8
337.327	0.81
337.695	0.82
338.062	0.8
338.429	0.83
338.796	0.82
339.163	0.8
339.53	0.82
339.897	0.82
340.263	0.84
340.63	0.83
340.997	0.84
341.364	0.84
341.731	0.84
342.097	0.85
342.464	0.84
342.831	0.85
343.197	0.86
343.564	0.87
343.931	0.84
344.297	0.85
344.664	0.87
345.03	0.86
345.396	0.88
345.763	0.89
346.129	0.89
346.496	0.88
346.862	0.89
347.228	0.88
347.594	0.88
347.961	0.91
348.327	0.89
348.693	0.88
349.059	0.9
349.425	0.9
349.791	0.88
350.157	0.91
350.523	0.9
350.889	0.9
351.255	0.93
351.621	0.92
351.987	0.89
352.353	0.92
352.719	0.92
353.084	0.9
353.45	0.89
353.816	0.92
354.181	0.9
354.547	0.88
354.913	0.88
355.278	0.88
355.644	0.9
356.009	0.9
356.375	0.89
356.74	0.87
357.106	0.88
357.471	0.87
357.836	0.86
358.202	0.88
358.567	0.86
358.932	0.89
359.297	0.85
359.663	0.88
360.028	0.87
360.393	0.85
360.758	0.86
361.123	0.84
361.488	0.82
361.853	0.85
362.218	0.84
362.583	0.81
362.948	0.81
363.312	0.83
363.677	0.82
364.042	0.8
364.407	0.81
364.772	0.8
365.136	0.78
365.501	0.78
365.865	0.81
366.23	0.77
366.595	0.8
366.959	0.77
367.324	0.77
367.688	0.75
368.052	0.73
368.417	0.75
368.781	0.75
369.145	0.73
369.51	0.71
369.874	0.74
370.238	0.71
370.602	0.69
370.967	0.68
371.331	0.67
371.695	0.7
372.059	0.68
372.423	0.69
372.787	0.68
373.151	0.67
373.515	0.66
373.878	0.66
374.242	0.64
374.606	0.63
374.97	0.63
375.334	0.62
375.697	0.61
376.061	0.59
376.425	0.61
376.788	0.61
377.152	0.58
377.515	0.6
377.879	0.58
378.242	0.55
378.606	0.56
378.969	0.56
379.333	0.56
379.696	0.55
380.059	0.53
380.422	0.51
380.786	0.52
381.149	0.5
381.512	0.49
381.875	0.48
382.238	0.47
382.601	0.47
382.964	0.47
383.327	0.46
383.69	0.44
384.053	0.45
384.416	0.42
384.779	0.43
385.142	0.43
385.504	0.42
385.867	0.41
386.23	0.39
386.593	0.4
386.955	0.39
387.318	0.38
387.68	0.37
388.043	0.36
388.405	0.37
388.768	0.36
389.13	0.35
389.493	0.35
389.855	0.34
390.217	0.34
390.58	0.33
390.942	0.32
391.304	0.32
391.666	0.32
392.028	0.31
392.391	0.31
392.753	0.3
393.115	0.29
393.477	0.28
393.839	0.29
394.201	0.29
394.563	0.29
394.924	0.27
395.286	0.27
395.648	0.28
396.01	0.27
396.371	0.27
396.733	0.26
397.095	0.26
397.456	0.26
397.818	0.26
398.18	0.25
398.541	0.24
398.903	0.24
399.264	0.25
399.625	0.24
399.987	0.24
400.348	0.24
400.709	0.24
401.071	0.23
401.432	0.23
401.793	0.23
402.154	0.22
402.515	0.23
402.876	0.21
403.238	0.22
403.599	0.23
403.96	0.22
404.32	0.22
404.681	0.22
405.042	0.22
405.403	0.22
405.764	0.21
406.125	0.22
406.485	0.2
406.846	0.22
407.207	0.21
407.567	0.2
407.928	0.21
408.288	0.2
408.649	0.2
409.009	0.21
409.37	0.2
409.73	0.19
410.091	0.19
410.451	0.19
410.811	0.19
411.171	0.19
411.532	0.18
411.892	0.19
412.252	0.18
412.612	0.18
412.972	0.19
413.332	0.18
413.692	0.18
414.052	0.18
414.412	0.18
414.772	0.19
415.132	0.19
415.492	0.19
415.851	0.2
416.211	0.19
416.571	0.18
416.931	0.2
417.29	0.19
417.65	0.18
418.009	0.19
418.369	0.19
418.728	0.18
419.088	0.18
419.447	0.18
419.807	0.17
420.166	0.17
420.525	0.18
420.884	0.18
421.244	0.17
421.603	0.18
421.962	0.17
422.321	0.17
422.68	0.18
423.039	0.18
423.398	0.17
423.757	0.16
424.116	0.16
424.475	0.18
424.834	0.17
425.193	0.17
425.551	0.16
425.91	0.16
426.269	0.16
426.628	0.16
426.986	0.15
427.345	0.17
427.703	0.16
428.062	0.17
428.42	0.18
428.779	0.16
429.137	0.17
429.496	0.17
429.854	0.17
430.212	0.17
430.57	0.15
430.929	0.16
431.287	0.15
431.645	0.15
432.003	0.15
432.361	0.15
432.719	0.16
433.077	0.15
433.435	0.15
433.793	0.15
434.151	0.15
434.509	0.14
434.866	0.15
435.224	0.15
435.582	0.15
435.94	0.15
436.297	0.13
436.655	0.14
437.012	0.15
437.37	0.15
437.727	0.14
438.085	0.14
438.442	0.13
438.8	0.15
439.157	0.12
439.514	0.15
439.872	0.14
440.229	0.14
440.586	0.12
440.943	0.14
441.3	0.12
441.657	0.13
442.014	0.12
442.371	0.13
442.728	0.14
443.085	0.14
443.442	0.13
443.799	0.12
444.156	0.12
444.513	0.12
444.869	0.12
445.226	0.12
445.583	0.13
445.939	0.12
446.296	0.12
446.652	0.12
447.009	0.13
447.365	0.11
447.722	0.11
448.078	0.11
448.434	0.1
448.791	0.12
449.147	0.1
449.503	0.11
449.859	0.1
450.215	0.09
450.571	0.1
450.928	0.1
451.284	0.11
451.64	0.1
451.995	0.1
452.351	0.1
452.707	0.11
453.063	0.1
453.419	0.09
453.775	0.08
454.13	0.1
454.486	0.08
454.842	0.09
455.197	0.09
455.553	0.08
455.908	0.07
456.264	0.09
456.619	0.09
456.975	0.08
457.33	0.08
457.685	0.08
458.04	0.08
458.396	0.08
458.751	0.07
459.106	0.08
459.461	0.07
459.816	0.07
460.171	0.07
460.526	0.06
460.881	0.07
461.236	0.06
461.591	0.07
461.946	0.06
462.301	0.05
462.655	0.06
463.01	0.06
463.365	0.06
463.719	0.05
464.074	0.05
464.428	0.05
464.783	0.04
465.137	0.04
465.492	0.04
465.846	0.04
466.201	0.04
466.555	0.04
466.909	0.05
467.263	0.04
467.618	0.04
467.972	0.03
468.326	0.04
468.68	0.04
469.034	0.02
469.388	0.02
469.742	0.03
470.096	0.02
470.45	0.02
470.804	0.02
471.157	0.02
471.511	0.01
471.865	0.02
472.218	0.02
472.572	0.02
472.926	0.01
473.279	0.02
473.633	0.01
473.986	0.01
474.34	0.02
474.693	0.02
475.046	0.01
475.4	-0
475.753	0.01
476.106	0.01
476.459	0.01
476.812	0.01
477.165	0
477.519	0.01
477.872	0
478.224	-0
478.577	0.02
478.93	0.01
479.283	0.02
479.636	0
479.989	0
480.341	-0.01
480.694	0
481.047	0.01
481.399	0.01
481.752	0
482.104	-0.01
482.457	0.01
482.809	-0.01
483.162	-0.01
483.514	-0.01
483.866	-0.01
484.219	-0.01
484.571	-0.01
484.923	0
485.275	0
485.627	-0
485.979	-0.01
486.331	-0
486.683	-0
487.035	0
487.387	0.01
487.739	0
488.091	-0
488.443	-0.02
488.794	-0
489.146	-0.01
489.498	-0
489.849	-0.02
490.201	-0.01
490.552	-0.01
490.904	-0.01
491.255	-0.01
491.607	-0.01
491.958	0
492.309	-0.02
492.661	-0.01
493.012	-0.01
493.363	-0.01
493.714	-0.01
494.065	-0.01
494.416	-0
494.767	0
495.118	-0.01
495.469	-0.01
495.82	-0.01
496.171	0.01
496.522	-0.02
496.872	-0.01
497.223	-0.01
497.574	-0.02
497.924	-0.01
498.275	0.01
498.626	-0.01
498.976	-0.01
499.327	-0.01
499.677	-0.01
500.027	-0.01
500.378	-0.02
500.728	-0.03
501.078	-0.03
501.428	-0.02
501.779	-0.02
502.129	-0.02
502.479	-0.01
502.829	-0.02
503.179	-0.03
503.529	-0.02
503.879	-0.01
504.229	-0.01
504.578	-0.02
504.928	0
505.278	-0.04
505.628	-0.02
505.977	-0.01
506.327	-0.02
506.676	-0.02
507.026	-0.02
507.375	-0.02
507.725	-0.03
508.074	-0.02
508.424	-0.02
508.773	-0.02
509.122	-0.03
509.471	-0.03
509.82	-0.01
510.17	-0.03
510.519	-0.02
510.868	-0.03
511.217	-0.02
511.566	-0.02
511.915	-0.02
512.263	-0.02
512.612	-0.01
512.961	-0.01
513.31	-0.02
513.659	-0.02
514.007	-0.03
514.356	-0.03
514.704	-0.02
515.053	-0.02
515.401	-0.03
515.75	-0.02
516.098	-0.03
516.447	-0.03
516.795	-0.04
517.143	-0.02
517.491	-0.03
517.839	-0.03
518.188	-0.03
518.536	-0.02
518.884	-0.01
519.232	-0.03
519.58	-0.03
519.928	-0.03
520.275	-0.01
520.623	-0.02
520.971	-0.03
521.319	-0.02
521.666	-0.03
522.014	-0.04
522.362	-0.04
522.709	-0.03
523.057	-0.04
523.404	-0.02
523.752	-0.03
524.099	-0.03
524.446	-0.01
524.794	-0.04
525.141	-0.02
525.488	-0.02
525.835	-0.01
526.182	-0.02
526.529	-0.04
526.876	-0.02
527.223	-0.03
527.57	-0.03
527.917	-0.02
528.264	-0.03
528.611	-0.03
528.958	-0.04
529.304	-0.04
529.651	-0.04
529.998	-0.02
530.344	-0.04
530.691	-0.04
531.037	-0.04
531.384	-0.02
531.73	-0.03
532.076	-0.04
532.423	-0.03
532.769	-0.02
533.115	-0.03
533.461	-0.04
533.807	-0.04
534.154	-0.01
534.5	-0.02
534.846	-0.02
535.192	-0.02
535.537	-0.03
535.883	-0.04
536.229	-0.03
536.575	-0.03
536.921	-0.04
537.266	-0.03
537.612	-0.03
537.957	-0.01
538.303	-0.03
538.649	-0.03
538.994	-0.03
539.339	-0.02
539.685	-0.02
540.03	-0.04
540.375	-0.03
540.721	-0.02
541.066	-0.02
541.411	-0.02
541.756	-0.03
542.101	-0.03
542.446	-0.03
542.791	-0.03
543.136	-0.02
543.481	-0.04
543.825	-0.03
544.17	-0.03
544.515	-0.03
544.86	-0.03
545.204	-0.03
545.549	-0.04
545.893	-0.04
546.238	-0.03
546.582	-0.03
546.927	-0.04
547.271	-0.03
547.615	-0.04
547.96	-0.04
548.304	-0.04
548.648	-0.03
548.992	-0.03
549.336	-0.04
549.68	-0.03
550.024	-0.05
550.368	-0.03
550.712	-0.04
551.056	-0.04
551.4	-0.03
551.743	-0.03
552.087	-0.01
552.431	-0.03
552.774	-0.02
553.118	-0.04
553.462	-0.01
553.805	-0.03
554.148	-0.03
554.492	-0.02
554.835	-0.03
555.178	-0.02
555.522	-0.04
555.865	-0.03
556.208	-0.03
556.551	-0.04
556.894	-0.05
557.237	-0.03
557.58	-0.03
557.923	-0.04
558.266	-0.03
558.609	-0.03
558.952	-0.03
559.294	-0.02
559.637	-0.05
559.98	-0.04
560.322	-0.02
560.665	-0.04
561.007	-0.02
561.35	-0.05
561.692	-0.04
562.034	-0.04
562.377	-0.04
562.719	-0.03
563.061	-0.03
563.403	-0.03
563.745	-0.04
564.088	-0.02
564.43	-0.02
564.772	-0.03
565.113	-0.03
565.455	-0.04
565.797	-0.03
566.139	-0.04
566.481	-0.02
566.822	-0.03
567.164	-0.03
567.506	-0.03
567.847	-0.04
568.189	-0.02
568.53	-0.04
568.872	-0.03
569.213	-0.03
569.554	-0.03
569.895	-0.03
570.237	-0.03
570.578	-0.03
570.919	-0.04
571.26	-0.03
571.601	-0.02
571.942	-0.03
572.283	-0.03
572.624	-0.02
572.965	-0.02
573.306	-0.04
573.646	-0.03
573.987	-0.04
574.328	-0.04
574.668	-0.03
575.009	-0.04
575.349	-0.03
575.69	-0.03
576.03	-0.02
576.37	-0.03
576.711	-0.03
577.051	-0.03
577.391	-0.01
577.731	-0.04
578.072	-0.03
578.412	-0.03
578.752	-0.03
579.092	-0.03
579.431	-0.03
579.771	-0.02
580.111	-0.02
580.451	-0.02
580.791	-0.02
581.13	-0.02
581.47	-0.03
581.81	-0.03
582.149	-0.03
582.489	-0.03
582.828	-0.02
583.167	-0.03
583.507	-0.01
583.846	-0.03
584.185	-0.03
584.525	-0.01
584.864	-0.03
585.203	-0.03
585.542	-0.02
585.881	-0.03
586.22	-0.03
586.559	-0.03
586.898	-0.02
587.236	-0.03
587.575	-0.02
587.914	-0.03
588.252	-0.03
588.591	-0.03
588.93	-0.03
589.268	-0.03
589.607	-0.03
589.945	-0.02
590.283	-0.03
590.622	-0.03
590.96	-0.02
591.298	-0.04
591.636	-0.03
591.974	-0.04
592.313	-0.04
592.651	-0.04
592.989	-0.05
593.326	-0.04
593.664	-0.03
594.002	-0.04
594.34	-0.04
594.678	-0.04
595.015	-0.04
595.353	-0.03
595.691	-0.03
596.028	-0.03
596.366	-0.04
596.703	-0.03
597.04	-0.03
597.378	-0.02
597.715	-0.04
598.052	-0.04
598.389	-0.04
598.726	-0.04
599.064	-0.04
599.401	-0.04
599.738	-0.04
600.074	-0.05
600.411	-0.04
600.748	-0.05
601.085	-0.03
601.422	-0.04
601.758	-0.03
602.095	-0.03
602.432	-0.02
602.768	-0.04
603.105	-0.02
603.441	-0.03
603.777	-0.03
604.114	-0.03
604.45	-0.03
604.786	-0.02
605.122	-0.04
605.459	-0.04
605.795	-0.03
606.131	-0.03
606.467	-0.03
606.803	-0.03
607.139	-0.03
607.474	-0.02
607.81	-0.03
608.146	-0.04
608.482	-0.04
608.817	-0.03
609.153	-0.02
609.488	-0.03
609.824	-0.03
610.159	-0.05
610.495	-0.04
610.83	-0.04
611.165	-0.03
611.5	-0.04
611.836	-0.03
612.171	-0.04
612.506	-0.04
612.841	-0.04
613.176	-0.04
613.511	-0.04
613.845	-0.04
614.18	-0.03
614.515	-0.05
614.85	-0.04
615.184	-0.03
615.519	-0.03
615.854	-0.04
616.188	-0.04
616.523	-0.04
616.857	-0.04
617.191	-0.04
617.526	-0.02
617.86	-0.03
618.194	-0.03
618.528	-0.03
618.862	-0.04
619.196	-0.04
619.53	-0.03
619.864	-0.04
620.198	-0.03
620.532	-0.04
620.866	-0.04
621.2	-0.04
621.533	-0.04
621.867	-0.04
622.201	-0.03
622.534	-0.04
622.868	-0.03
623.201	-0.03
623.534	-0.04
623.868	-0.03
624.201	-0.03
624.534	-0.03
624.868	-0.03
625.201	-0.04
625.534	-0.02
625.867	-0.04
626.2	-0.04
626.533	-0.04
626.865	-0.05
627.198	-0.04
627.531	-0.05
627.864	-0.05
628.196	-0.04
628.529	-0.04
628.862	-0.04
629.194	-0.03
629.527	-0.04
629.859	-0.05
630.191	-0.03
630.524	-0.04
630.856	-0.04
631.188	-0.04
631.52	-0.04
631.852	-0.04
632.184	-0.04
632.516	-0.04
632.848	-0.04
633.18	-0.06
633.512	-0.05
633.844	-0.05
634.175	-0.05
634.507	-0.05
634.839	-0.05
635.17	-0.03
635.502	-0.03
635.833	-0.04
636.165	-0.04
636.496	-0.05
636.827	-0.05
637.159	-0.04
637.49	-0.04
637.821	-0.05
638.152	-0.03
638.483	-0.03
638.814	-0.05
639.145	-0.06
639.476	-0.04
639.807	-0.04
640.137	-0.05
640.468	-0.04
640.799	-0.05
641.129	-0.04
641.46	-0.05
641.791	-0.06
642.121	-0.05
642.451	-0.05
642.782	-0.05
643.112	-0.05
643.442	-0.04
643.773	-0.05
644.103	-0.04
644.433	-0.04
644.763	-0.03
645.093	-0.03
645.423	-0.05
645.753	-0.04
646.082	-0.05
646.412	-0.04
646.742	-0.05
647.072	-0.04
647.401	-0.02
647.731	-0.05
648.06	-0.02
648.39	-0.04
648.719	-0.04
649.048	-0.04
649.378	-0.03
649.707	-0.05
650.036	-0.05
650.365	-0.04
650.694	-0.04
651.023	-0.04
651.352	-0.04
651.681	-0.03
652.01	-0.03
