Data from c2t_JH05_50uM_Absorbance_11-14-53-048.txt Node
Date: Thu Dec 21 11:14:53 GMT 2017
User: egn-admin
Spectrometer: OFX00224
Trigger mode: 0
Integration Time (sec): 5.000000E-2
Scans to average: 1
Nonlinearity correction enabled: false
Boxcar width: 0
Storing dark spectrum: false
XAxis mode: Wavelengths
Number of Pixels in Spectrum: 2136
>>>>>Begin Spectral Data<<<<<
154.91	0.14
155.289	0.13
155.669	0.03
156.048	0.36
156.428	-0.3
156.807	0.08
157.186	-0
157.566	-0.18
157.945	-0
158.325	-0.78
158.704	-0
159.083	-0
159.462	0.1
159.842	-0
160.221	-0
160.6	-0
160.979	-0
161.359	-0
161.738	-0.19
162.117	-0.46
162.496	-0
162.875	-0.67
163.254	-0.05
163.633	-0.03
164.012	-0
164.391	-1.04
164.77	-0
165.149	0.38
165.528	-0
165.907	-0.9
166.286	-0.21
166.665	0.68
167.044	0.07
167.423	-0.3
167.802	-0
168.181	-0
168.559	-0
168.938	-0
169.317	0.4
169.696	-0.07
170.074	0.72
170.453	-0
170.832	-0.41
171.21	-0.2
171.589	0.37
171.968	0.65
172.346	0.48
172.725	-0
173.103	-0
173.482	0.05
173.861	-0
174.239	-0.27
174.617	-0.33
174.996	-0
175.374	-0
175.753	-0.54
176.131	-0.27
176.51	-0.32
176.888	-0.22
177.266	-0.1
177.645	0.12
178.023	0.03
178.401	-0.3
178.779	-0
179.158	0.4
179.536	-0
179.914	-0.8
180.292	-0
180.67	0.1
181.048	-0
181.427	-0.18
181.805	-0.15
182.183	-0
182.561	-0
182.939	0.03
183.317	-0.06
183.695	-0.67
184.073	-0
184.451	0.08
184.829	0.12
185.206	-0.08
185.584	-0.23
185.962	-0
186.34	-0.15
186.718	-0
187.096	-0
187.473	-0
187.851	-0.3
188.229	-0.36
188.607	0.54
188.984	0.06
189.362	-0
189.74	-0
190.117	0.51
190.495	0.17
190.872	0.27
191.25	0.52
191.627	-0.09
192.005	0.24
192.382	-0
192.76	-0.04
193.137	-0.15
193.515	0.23
193.892	0.83
194.269	-0
194.647	0.05
195.024	0.18
195.401	0.21
195.779	0.08
196.156	0.06
196.533	-0.16
196.91	-0.13
197.288	-0
197.665	-1
198.042	-0.01
198.419	0.82
198.796	0.21
199.173	-0
199.55	-0.48
199.927	-0.03
200.304	-0.06
200.681	0.3
201.058	0.37
201.435	0.24
201.812	-0.03
202.189	0.06
202.566	0.41
202.943	0.09
203.32	0.31
203.697	0.18
204.073	-0.12
204.45	-0.02
204.827	-0.12
205.204	-0
205.58	0.18
205.957	0.47
206.334	0.6
206.71	0.94
207.087	0.03
207.464	-0.14
207.84	0.03
208.217	0.11
208.593	-0.07
208.97	-0.06
209.346	0.33
209.723	0.11
210.099	0.01
210.476	0.19
210.852	0.11
211.228	0.34
211.605	0.03
211.981	0.09
212.357	0.51
212.733	0.25
213.11	0.15
213.486	0.17
213.862	0.32
214.238	0.27
214.614	-0.09
214.991	0.45
215.367	0.68
215.743	-0
216.119	0.39
216.495	0.03
216.871	-0.11
217.247	1.53
217.623	0.39
217.999	-0.14
218.375	0.13
218.751	0.99
219.127	0.62
219.502	0.05
219.878	0.42
220.254	0.03
220.63	0.16
221.006	0.06
221.381	0.87
221.757	0.18
222.133	0.38
222.508	0.32
222.884	0.36
223.26	0.09
223.635	0.13
224.011	0.28
224.386	0.29
224.762	-0.08
225.137	0.14
225.513	0.27
225.888	-0.57
226.264	0.23
226.639	0.15
227.014	0.26
227.39	0.49
227.765	0.11
228.14	0.19
228.516	0.11
228.891	0.18
229.266	0.15
229.641	-0
230.017	0.11
230.392	0.51
230.767	1.24
231.142	0.06
231.517	0.24
231.892	0.62
232.267	0.44
232.642	0.1
233.017	-0
233.392	0.37
233.767	0.35
234.142	0.07
234.517	0.05
234.892	0.76
235.267	0.5
235.641	-0.17
236.016	-0.1
236.391	-0.01
236.766	0.68
237.14	0.19
237.515	0.36
237.89	0.18
238.264	0.8
238.639	-0.01
239.014	0.14
239.388	0.14
239.763	0.32
240.137	0.07
240.512	0.4
240.886	0.41
241.261	0.6
241.635	0.08
242.009	0.6
242.384	-0.06
242.758	0.11
243.132	0.01
243.507	0.24
243.881	0.74
244.255	0.19
244.629	0.26
245.004	0.55
245.378	0.37
245.752	0.49
246.126	-0.2
246.5	0.22
246.874	0.39
247.248	0.1
247.622	0.62
247.996	0.17
248.37	0.35
248.744	0.54
249.118	0.25
249.492	-0
249.866	0.27
250.24	0.13
250.613	0.32
250.987	0.11
251.361	0.33
251.735	0.37
252.108	0.25
252.482	0.25
252.856	0.46
253.229	0.27
253.603	0.28
253.977	0.07
254.35	0.15
254.724	0.2
255.097	0.29
255.471	0.18
255.844	0.17
256.218	0.17
256.591	0.28
256.964	0.12
257.338	0.12
257.711	0.27
258.084	0.33
258.458	0.2
258.831	0.22
259.204	0.26
259.577	0.31
259.95	0.17
260.323	0.32
260.697	0.17
261.07	0.22
261.443	0.27
261.816	0.3
262.189	0.16
262.562	0.2
262.935	0.24
263.308	0.19
263.68	0.15
264.053	0.22
264.426	0.2
264.799	0.23
265.172	0.23
265.545	0.24
265.917	0.2
266.29	0.2
266.663	0.16
267.035	0.21
267.408	0.19
267.781	0.18
268.153	0.16
268.526	0.16
268.898	0.15
269.271	0.15
269.643	0.15
270.016	0.19
270.388	0.19
270.76	0.13
271.133	0.16
271.505	0.13
271.877	0.12
272.25	0.17
272.622	0.14
272.994	0.14
273.366	0.15
273.739	0.17
274.111	0.14
274.483	0.15
274.855	0.16
275.227	0.14
275.599	0.13
275.971	0.14
276.343	0.14
276.715	0.15
277.087	0.18
277.459	0.16
277.831	0.16
278.203	0.15
278.574	0.15
278.946	0.16
279.318	0.17
279.69	0.15
280.061	0.15
280.433	0.16
280.805	0.16
281.176	0.17
281.548	0.16
281.92	0.16
282.291	0.17
282.663	0.17
283.034	0.17
283.406	0.18
283.777	0.16
284.148	0.17
284.52	0.19
284.891	0.19
285.262	0.18
285.634	0.19
286.005	0.18
286.376	0.19
286.747	0.19
287.119	0.2
287.49	0.21
287.861	0.2
288.232	0.2
288.603	0.22
288.974	0.22
289.345	0.22
289.716	0.22
290.087	0.22
290.458	0.23
290.829	0.21
291.2	0.23
291.571	0.24
291.941	0.23
292.312	0.24
292.683	0.24
293.054	0.23
293.424	0.25
293.795	0.24
294.166	0.25
294.536	0.25
294.907	0.26
295.277	0.26
295.648	0.26
296.018	0.26
296.389	0.25
296.759	0.25
297.13	0.27
297.5	0.27
297.871	0.26
298.241	0.27
298.611	0.27
298.981	0.28
299.352	0.28
299.722	0.28
300.092	0.28
300.462	0.29
300.832	0.3
301.202	0.3
301.573	0.3
301.943	0.3
302.313	0.31
302.683	0.31
303.053	0.31
303.422	0.32
303.792	0.32
304.162	0.33
304.532	0.33
304.902	0.33
305.272	0.34
305.641	0.35
306.011	0.36
306.381	0.36
306.75	0.36
307.12	0.36
307.49	0.36
307.859	0.37
308.229	0.37
308.598	0.37
308.968	0.38
309.337	0.38
309.707	0.38
310.076	0.4
310.445	0.4
310.815	0.39
311.184	0.4
311.553	0.41
311.923	0.43
312.292	0.42
312.661	0.43
313.03	0.43
313.399	0.44
313.768	0.43
314.137	0.43
314.506	0.44
314.875	0.45
315.244	0.46
315.613	0.47
315.982	0.46
316.351	0.46
316.72	0.47
317.089	0.47
317.458	0.49
317.826	0.5
318.195	0.51
318.564	0.51
318.933	0.52
319.301	0.52
319.67	0.52
320.038	0.54
320.407	0.54
320.775	0.54
321.144	0.55
321.512	0.55
321.881	0.56
322.249	0.56
322.618	0.57
322.986	0.57
323.354	0.57
323.723	0.58
324.091	0.6
324.459	0.6
324.827	0.61
325.195	0.6
325.564	0.61
325.932	0.61
326.3	0.65
326.668	0.64
327.036	0.63
327.404	0.63
327.772	0.64
328.14	0.65
328.508	0.64
328.875	0.68
329.243	0.69
329.611	0.69
329.979	0.7
330.346	0.7
330.714	0.7
331.082	0.69
331.449	0.7
331.817	0.71
332.185	0.71
332.552	0.74
332.92	0.73
333.287	0.73
333.655	0.76
334.022	0.75
334.389	0.77
334.757	0.78
335.124	0.78
335.491	0.77
335.859	0.78
336.226	0.79
336.593	0.79
336.96	0.79
337.327	0.78
337.695	0.8
338.062	0.81
338.429	0.83
338.796	0.83
339.163	0.82
339.53	0.83
339.897	0.82
340.263	0.85
340.63	0.82
340.997	0.85
341.364	0.83
341.731	0.85
342.097	0.85
342.464	0.85
342.831	0.86
343.197	0.86
343.564	0.86
343.931	0.87
344.297	0.87
344.664	0.87
345.03	0.88
345.396	0.88
345.763	0.89
346.129	0.87
346.496	0.87
346.862	0.88
347.228	0.88
347.594	0.89
347.961	0.89
348.327	0.92
348.693	0.89
349.059	0.88
349.425	0.89
349.791	0.89
350.157	0.91
350.523	0.92
350.889	0.91
351.255	0.9
351.621	0.92
351.987	0.91
352.353	0.92
352.719	0.92
353.084	0.91
353.45	0.9
353.816	0.91
354.181	0.9
354.547	0.91
354.913	0.91
355.278	0.89
355.644	0.9
356.009	0.91
356.375	0.89
356.74	0.89
357.106	0.89
357.471	0.88
357.836	0.87
358.202	0.88
358.567	0.86
358.932	0.9
359.297	0.85
359.663	0.86
360.028	0.85
360.393	0.83
360.758	0.85
361.123	0.83
361.488	0.85
361.853	0.84
362.218	0.85
362.583	0.8
362.948	0.81
363.312	0.81
363.677	0.81
364.042	0.81
364.407	0.81
364.772	0.82
365.136	0.77
365.501	0.79
365.865	0.79
366.23	0.77
366.595	0.78
366.959	0.78
367.324	0.79
367.688	0.76
368.052	0.74
368.417	0.76
368.781	0.76
369.145	0.72
369.51	0.7
369.874	0.72
370.238	0.72
370.602	0.71
370.967	0.68
371.331	0.69
371.695	0.7
372.059	0.68
372.423	0.69
372.787	0.67
373.151	0.68
373.515	0.66
373.878	0.66
374.242	0.65
374.606	0.64
374.97	0.62
375.334	0.62
375.697	0.6
376.061	0.61
376.425	0.6
376.788	0.61
377.152	0.58
377.515	0.59
377.879	0.59
378.242	0.56
378.606	0.56
378.969	0.56
379.333	0.54
379.696	0.55
380.059	0.53
380.422	0.53
380.786	0.53
381.149	0.51
381.512	0.49
381.875	0.49
382.238	0.48
382.601	0.47
382.964	0.45
383.327	0.46
383.69	0.46
384.053	0.45
384.416	0.44
384.779	0.43
385.142	0.42
385.504	0.41
385.867	0.4
386.23	0.4
386.593	0.41
386.955	0.39
387.318	0.38
387.68	0.37
388.043	0.37
388.405	0.37
388.768	0.37
389.13	0.35
389.493	0.34
389.855	0.34
390.217	0.34
390.58	0.34
390.942	0.32
391.304	0.33
391.666	0.3
392.028	0.31
392.391	0.31
392.753	0.3
393.115	0.29
393.477	0.29
393.839	0.3
394.201	0.29
394.563	0.29
394.924	0.27
395.286	0.28
395.648	0.27
396.01	0.26
396.371	0.26
396.733	0.26
397.095	0.26
397.456	0.27
397.818	0.24
398.18	0.25
398.541	0.24
398.903	0.25
399.264	0.24
399.625	0.24
399.987	0.24
400.348	0.23
400.709	0.23
401.071	0.23
401.432	0.23
401.793	0.23
402.154	0.21
402.515	0.23
402.876	0.21
403.238	0.24
403.599	0.23
403.96	0.22
404.32	0.22
404.681	0.23
405.042	0.22
405.403	0.22
405.764	0.22
406.125	0.22
406.485	0.21
406.846	0.22
407.207	0.21
407.567	0.21
407.928	0.2
408.288	0.2
408.649	0.22
409.009	0.2
409.37	0.21
409.73	0.2
410.091	0.19
410.451	0.2
410.811	0.19
411.171	0.19
411.532	0.18
411.892	0.18
412.252	0.19
412.612	0.19
412.972	0.19
413.332	0.18
413.692	0.19
414.052	0.2
414.412	0.19
414.772	0.2
415.132	0.18
415.492	0.18
415.851	0.2
416.211	0.19
416.571	0.19
416.931	0.19
417.29	0.19
417.65	0.18
418.009	0.19
418.369	0.18
418.728	0.18
419.088	0.18
419.447	0.17
419.807	0.17
420.166	0.18
420.525	0.18
420.884	0.18
421.244	0.17
421.603	0.18
421.962	0.16
422.321	0.18
422.68	0.17
423.039	0.19
423.398	0.17
423.757	0.16
424.116	0.18
424.475	0.19
424.834	0.18
425.193	0.17
425.551	0.17
425.91	0.16
426.269	0.17
426.628	0.17
426.986	0.15
427.345	0.17
427.703	0.17
428.062	0.16
428.42	0.15
428.779	0.16
429.137	0.16
429.496	0.16
429.854	0.17
430.212	0.16
430.57	0.17
430.929	0.15
431.287	0.16
431.645	0.15
432.003	0.15
432.361	0.16
432.719	0.16
433.077	0.15
433.435	0.16
433.793	0.15
434.151	0.15
434.509	0.13
434.866	0.15
435.224	0.14
435.582	0.14
435.94	0.15
436.297	0.13
436.655	0.12
437.012	0.14
437.37	0.14
437.727	0.14
438.085	0.15
438.442	0.14
438.8	0.14
439.157	0.13
439.514	0.13
439.872	0.14
440.229	0.14
440.586	0.14
440.943	0.13
441.3	0.11
441.657	0.13
442.014	0.12
442.371	0.14
442.728	0.13
443.085	0.13
443.442	0.13
443.799	0.12
444.156	0.13
444.513	0.11
444.869	0.12
445.226	0.13
445.583	0.13
445.939	0.11
446.296	0.13
446.652	0.12
447.009	0.12
447.365	0.11
447.722	0.11
448.078	0.13
448.434	0.12
448.791	0.12
449.147	0.1
449.503	0.12
449.859	0.1
450.215	0.1
450.571	0.1
450.928	0.1
451.284	0.1
451.64	0.1
451.995	0.1
452.351	0.1
452.707	0.1
453.063	0.09
453.419	0.09
453.775	0.09
454.13	0.11
454.486	0.1
454.842	0.09
455.197	0.08
455.553	0.08
455.908	0.07
456.264	0.08
456.619	0.09
456.975	0.08
457.33	0.08
457.685	0.08
458.04	0.08
458.396	0.07
458.751	0.07
459.106	0.08
459.461	0.07
459.816	0.07
460.171	0.07
460.526	0.07
460.881	0.06
461.236	0.06
461.591	0.07
461.946	0.07
462.301	0.06
462.655	0.05
463.01	0.05
463.365	0.06
463.719	0.05
464.074	0.04
464.428	0.05
464.783	0.05
465.137	0.04
465.492	0.04
465.846	0.04
466.201	0.03
466.555	0.04
466.909	0.03
467.263	0.03
467.618	0.04
467.972	0.03
468.326	0.03
468.68	0.03
469.034	0.03
469.388	0.02
469.742	0.02
470.096	0.03
470.45	0.02
470.804	0.02
471.157	0.02
471.511	0.01
471.865	0.02
472.218	0.03
472.572	0.03
472.926	0.01
473.279	0.01
473.633	0.02
473.986	0.02
474.34	0.01
474.693	0.01
475.046	0.01
475.4	0
475.753	0.01
476.106	0.01
476.459	0.01
476.812	0.01
477.165	0
477.519	0.02
477.872	0.01
478.224	0
478.577	0.01
478.93	0.01
479.283	0.02
479.636	-0.01
479.989	0
480.341	-0
480.694	0.01
481.047	0.01
481.399	0.01
481.752	-0
482.104	0
482.457	-0
482.809	-0.01
483.162	-0
483.514	-0.01
483.866	-0.01
484.219	-0
484.571	-0
484.923	-0.01
485.275	-0
485.627	-0.01
485.979	-0.02
486.331	-0
486.683	-0
487.035	-0
487.387	-0
487.739	0
488.091	-0
488.443	-0.02
488.794	-0.01
489.146	-0.01
489.498	-0.01
489.849	-0.01
490.201	-0.01
490.552	-0.01
490.904	-0.01
491.255	0
491.607	-0.01
491.958	0
492.309	-0.02
492.661	-0.01
493.012	-0.01
493.363	0
493.714	-0.01
494.065	0
494.416	-0.01
494.767	-0
495.118	-0.02
495.469	-0
495.82	-0.01
496.171	0
496.522	-0
496.872	0
497.223	-0.01
497.574	-0.02
497.924	0.01
498.275	0.01
498.626	-0
498.976	-0.02
499.327	-0.01
499.677	-0.01
500.027	-0.01
500.378	-0.02
500.728	-0.03
501.078	-0.01
501.428	-0.02
501.779	-0.03
502.129	-0.03
502.479	-0.01
502.829	-0.02
503.179	-0.03
503.529	-0.02
503.879	-0.01
504.229	-0.01
504.578	-0.03
504.928	0
505.278	-0.02
505.628	-0.02
505.977	-0.03
506.327	-0.02
506.676	-0.02
507.026	-0.02
507.375	-0.01
507.725	-0.03
508.074	-0.02
508.424	-0.02
508.773	-0.02
509.122	-0.03
509.471	-0.03
509.82	-0.03
510.17	-0.02
510.519	-0.02
510.868	-0.02
511.217	-0.02
511.566	-0.02
511.915	-0.01
512.263	-0.03
512.612	-0.02
512.961	-0.02
513.31	-0.01
513.659	-0.02
514.007	-0.02
514.356	-0.03
514.704	-0.02
515.053	-0.01
515.401	-0.02
515.75	-0.03
516.098	-0.03
516.447	-0.02
516.795	-0.03
517.143	-0.03
517.491	-0.03
517.839	-0.05
518.188	-0.03
518.536	-0.02
518.884	-0.03
519.232	-0.03
519.58	-0.02
519.928	-0.03
520.275	-0.03
520.623	-0.02
520.971	-0.02
521.319	-0.01
521.666	-0.03
522.014	-0.03
522.362	-0.04
522.709	-0.02
523.057	-0.02
523.404	-0.03
523.752	-0.02
524.099	-0.03
524.446	-0.02
524.794	-0.04
525.141	-0.02
525.488	-0.02
525.835	-0.03
526.182	-0.03
526.529	-0.02
526.876	-0.02
527.223	-0.03
527.57	-0.03
527.917	-0.03
528.264	-0.01
528.611	-0.03
528.958	-0.03
529.304	-0.03
529.651	-0.03
529.998	-0.03
530.344	-0.03
530.691	-0.04
531.037	-0.04
531.384	-0.03
531.73	-0.03
532.076	-0.03
532.423	-0.03
532.769	-0.02
533.115	-0.03
533.461	-0.03
533.807	-0.03
534.154	-0.03
534.5	-0.02
534.846	-0.03
535.192	-0.02
535.537	-0.04
535.883	-0.03
536.229	-0.03
536.575	-0.03
536.921	-0.02
537.266	-0.03
537.612	-0.04
537.957	-0.02
538.303	-0.03
538.649	-0.03
538.994	-0.03
539.339	-0.03
539.685	-0.03
540.03	-0.04
540.375	-0.03
540.721	-0.03
541.066	-0.03
541.411	-0.02
541.756	-0.03
542.101	-0.03
542.446	-0.03
542.791	-0.02
543.136	-0.03
543.481	-0.04
543.825	-0.03
544.17	-0.04
544.515	-0.03
544.86	-0.05
545.204	-0.03
545.549	-0.04
545.893	-0.06
546.238	-0.03
546.582	-0.03
546.927	-0.04
547.271	-0.03
547.615	-0.04
547.96	-0.03
548.304	-0.04
548.648	-0.03
548.992	-0.03
549.336	-0.04
549.68	-0.02
550.024	-0.05
550.368	-0.02
550.712	-0.03
551.056	-0.04
551.4	-0.04
551.743	-0.04
552.087	-0.02
552.431	-0.02
552.774	-0.03
553.118	-0.04
553.462	-0.02
553.805	-0.03
554.148	-0.03
554.492	-0.03
554.835	-0.03
555.178	-0.02
555.522	-0.04
555.865	-0.03
556.208	-0.04
556.551	-0.04
556.894	-0.04
557.237	-0.02
557.58	-0.04
557.923	-0.03
558.266	-0.04
558.609	-0.03
558.952	-0.04
559.294	-0.03
559.637	-0.05
559.98	-0.04
560.322	-0.03
560.665	-0.04
561.007	-0.02
561.35	-0.05
561.692	-0.02
562.034	-0.04
562.377	-0.03
562.719	-0.03
563.061	-0.03
563.403	-0.03
563.745	-0.04
564.088	-0.02
564.43	-0.02
564.772	-0.02
565.113	-0.03
565.455	-0.03
565.797	-0.02
566.139	-0.05
566.481	-0.03
566.822	-0.02
567.164	-0.04
567.506	-0.03
567.847	-0.03
568.189	-0.03
568.53	-0.03
568.872	-0.03
569.213	-0.02
569.554	-0.04
569.895	-0.03
570.237	-0.03
570.578	-0.03
570.919	-0.03
571.26	-0.03
571.601	-0.03
571.942	-0.02
572.283	-0.03
572.624	-0.02
572.965	-0.02
573.306	-0.03
573.646	-0.03
573.987	-0.03
574.328	-0.05
574.668	-0.04
575.009	-0.04
575.349	-0.03
575.69	-0.02
576.03	-0.03
576.37	-0.04
576.711	-0.04
577.051	-0.03
577.391	-0.02
577.731	-0.04
578.072	-0.03
578.412	-0.03
578.752	-0.03
579.092	-0.02
579.431	-0.02
579.771	-0.02
580.111	-0.01
580.451	-0.02
580.791	-0.03
581.13	-0.01
581.47	-0.03
581.81	-0.02
582.149	-0.03
582.489	-0.03
582.828	-0.02
583.167	-0.02
583.507	-0.01
583.846	-0.03
584.185	-0.02
584.525	-0.02
584.864	-0.02
585.203	-0.03
585.542	-0.03
585.881	-0.03
586.22	-0.03
586.559	-0.03
586.898	-0.02
587.236	-0.03
587.575	-0.03
587.914	-0.03
588.252	-0.03
588.591	-0.03
588.93	-0.02
589.268	-0.04
589.607	-0.02
589.945	-0.02
590.283	-0.03
590.622	-0.03
590.96	-0.03
591.298	-0.03
591.636	-0.03
591.974	-0.03
592.313	-0.03
592.651	-0.03
592.989	-0.05
593.326	-0.04
593.664	-0.04
594.002	-0.04
594.34	-0.03
594.678	-0.04
595.015	-0.04
595.353	-0.02
595.691	-0.04
596.028	-0.03
596.366	-0.04
596.703	-0.04
597.04	-0.04
597.378	-0.02
597.715	-0.04
598.052	-0.03
598.389	-0.04
598.726	-0.03
599.064	-0.04
599.401	-0.05
599.738	-0.05
600.074	-0.03
600.411	-0.04
600.748	-0.04
601.085	-0.03
601.422	-0.03
601.758	-0.03
602.095	-0.03
602.432	-0.03
602.768	-0.04
603.105	-0.03
603.441	-0.03
603.777	-0.02
604.114	-0.03
604.45	-0.03
604.786	-0.03
605.122	-0.02
605.459	-0.04
605.795	-0.03
606.131	-0.02
606.467	-0.03
606.803	-0.03
607.139	-0.03
607.474	-0.03
607.81	-0.04
608.146	-0.03
608.482	-0.03
608.817	-0.04
609.153	-0.03
609.488	-0.04
609.824	-0.03
610.159	-0.05
610.495	-0.05
610.83	-0.04
611.165	-0.04
611.5	-0.05
611.836	-0.04
612.171	-0.03
612.506	-0.05
612.841	-0.04
613.176	-0.05
613.511	-0.04
613.845	-0.04
614.18	-0.05
614.515	-0.04
614.85	-0.05
615.184	-0.03
615.519	-0.02
615.854	-0.04
616.188	-0.04
616.523	-0.04
616.857	-0.04
617.191	-0.02
617.526	-0.02
617.86	-0.04
618.194	-0.04
618.528	-0.04
618.862	-0.05
619.196	-0.04
619.53	-0.03
619.864	-0.04
620.198	-0.04
620.532	-0.03
620.866	-0.03
621.2	-0.04
621.533	-0.05
621.867	-0.04
622.201	-0.03
622.534	-0.04
622.868	-0.03
623.201	-0.03
623.534	-0.03
623.868	-0.03
624.201	-0.03
624.534	-0.03
624.868	-0.03
625.201	-0.03
625.534	-0.04
625.867	-0.03
626.2	-0.03
626.533	-0.04
626.865	-0.04
627.198	-0.04
627.531	-0.06
627.864	-0.05
628.196	-0.04
628.529	-0.05
628.862	-0.04
629.194	-0.03
629.527	-0.04
629.859	-0.05
630.191	-0.04
630.524	-0.04
630.856	-0.04
631.188	-0.03
631.52	-0.03
631.852	-0.04
632.184	-0.04
632.516	-0.05
632.848	-0.05
633.18	-0.06
633.512	-0.06
633.844	-0.05
634.175	-0.05
634.507	-0.04
634.839	-0.05
635.17	-0.04
635.502	-0.04
635.833	-0.04
636.165	-0.05
636.496	-0.04
636.827	-0.04
637.159	-0.04
637.49	-0.05
637.821	-0.04
638.152	-0.04
638.483	-0.02
638.814	-0.05
639.145	-0.05
639.476	-0.05
639.807	-0.05
640.137	-0.05
640.468	-0.03
640.799	-0.05
641.129	-0.05
641.46	-0.06
641.791	-0.05
642.121	-0.05
642.451	-0.06
642.782	-0.06
643.112	-0.05
643.442	-0.04
643.773	-0.04
644.103	-0.06
644.433	-0.04
644.763	-0.04
645.093	-0.04
645.423	-0.03
645.753	-0.04
646.082	-0.05
646.412	-0.05
646.742	-0.04
647.072	-0.05
647.401	-0.04
647.731	-0.03
648.06	-0.03
648.39	-0.03
648.719	-0.04
649.048	-0.04
649.378	-0.03
649.707	-0.04
650.036	-0.05
650.365	-0.04
650.694	-0.03
651.023	-0.04
651.352	-0.04
651.681	-0.04
652.01	-0.04
652.339	-0.03
652.668	-0.04
