Data from c2t_JH05_50uM_Absorbance_11-14-43-010.txt Node
Date: Thu Dec 21 11:14:43 GMT 2017
User: egn-admin
Spectrometer: OFX00224
Trigger mode: 0
Integration Time (sec): 5.000000E-2
Scans to average: 1
Nonlinearity correction enabled: false
Boxcar width: 0
Storing dark spectrum: false
XAxis mode: Wavelengths
Number of Pixels in Spectrum: 2136
>>>>>Begin Spectral Data<<<<<
154.91	-0.37
155.289	0.43
155.669	0.01
156.048	0.08
156.428	-0.48
156.807	0.95
157.186	-0.34
157.566	0.23
157.945	-0
158.325	-0.88
158.704	-0
159.083	-0
159.462	-0.13
159.842	-0.6
160.221	-0
160.6	0.6
160.979	0.6
161.359	-0
161.738	-0.16
162.117	-0.11
162.496	-0
162.875	-0.52
163.254	0.28
163.633	0.03
164.012	-0
164.391	-1
164.77	-0.3
165.149	0.3
165.528	-0
165.907	-1.32
166.286	0.15
166.665	0.43
167.044	0.32
167.423	-0
167.802	-0
168.181	-0
168.559	-0
168.938	-0
169.317	0.06
169.696	0.26
170.074	-0
170.453	0.06
170.832	-0.2
171.21	-0
171.589	0.42
171.968	0.48
172.346	0.1
172.725	-0.28
173.103	0.95
173.482	1.11
173.861	-0
174.239	-0.39
174.617	-0
174.996	-0
175.374	-0.3
175.753	-0.54
176.131	-0.23
176.51	1.08
176.888	-0.08
177.266	-0.12
177.645	0.82
178.023	-0
178.401	-0
178.779	-0
179.158	0.26
179.536	-0.7
179.914	-0.37
180.292	-0
180.67	0.76
181.048	-0.2
181.427	-0.3
181.805	-0.2
182.183	0.3
182.561	-0
182.939	-0.14
183.317	-0.43
183.695	-0.48
184.073	-0.73
184.451	-0
184.829	1
185.206	-0.2
185.584	-0.11
185.962	-0
186.34	-0.04
186.718	-0.26
187.096	-0
187.473	0.43
187.851	-0.22
188.229	-0
188.607	0.1
188.984	0.01
189.362	0.42
189.74	-0
190.117	-0
190.495	0.14
190.872	0.51
191.25	0.28
191.627	-0.24
192.005	0.24
192.382	0.34
192.76	-0.11
193.137	-0
193.515	-0.12
193.892	0.42
194.269	0.28
194.647	0.25
195.024	0.26
195.401	1.11
195.779	0.13
196.156	0.16
196.533	-0.05
196.91	-0
197.288	-0.6
197.665	-1.63
198.042	-0.01
198.419	-0
198.796	0.31
199.173	1
199.55	-0.54
199.927	-0.23
200.304	0.18
200.681	-0.48
201.058	0.54
201.435	0.75
201.812	-0.04
202.189	0.08
202.566	0.19
202.943	0.12
203.32	0.18
203.697	0.08
204.073	-0.12
204.45	-0.1
204.827	0.46
205.204	0.26
205.58	-0.01
205.957	0.08
206.334	0.52
206.71	-0
207.087	0.08
207.464	0.02
207.84	0.17
208.217	0.22
208.593	-0.08
208.97	-0.05
209.346	0.17
209.723	0.06
210.099	-0.07
210.476	-0.12
210.852	-0
211.228	0.24
211.605	0.07
211.981	0.02
212.357	0.94
212.733	0.4
213.11	-0.09
213.486	0.07
213.862	0.41
214.238	0.17
214.614	-0.2
214.991	0.21
215.367	-0.17
215.743	-0
216.119	0.74
216.495	-0.08
216.871	0.39
217.247	0.08
217.623	0.02
217.999	0.48
218.375	0.05
218.751	0.14
219.127	0.41
219.502	0.02
219.878	0.09
220.254	0.01
220.63	0.26
221.006	0.27
221.381	-0.09
221.757	0.29
222.133	0.08
222.508	0.02
222.884	0.11
223.26	-0.15
223.635	-0.07
224.011	-0
224.386	0.33
224.762	0.18
225.137	0.32
225.513	-0.03
225.888	-0.21
226.264	0.63
226.639	0.4
227.014	0.24
227.39	0.15
227.765	-0.18
228.14	0.08
228.516	0.61
228.891	-0.17
229.266	0.3
229.641	-0
230.017	0.21
230.392	0.08
230.767	-0.16
231.142	-0.07
231.517	0.19
231.892	0.34
232.267	0.27
232.642	0.37
233.017	0.4
233.392	0.42
233.767	0.2
234.142	0.03
234.517	0.12
234.892	0.38
235.267	0.3
235.641	-0.06
236.016	1.61
236.391	0.37
236.766	-0.04
237.14	0.32
237.515	0.65
237.89	0.55
238.264	0.39
238.639	0.23
239.014	0.02
239.388	0.07
239.763	0.25
240.137	0.17
240.512	0.02
240.886	0.35
241.261	0.6
241.635	0.09
242.009	0.55
242.384	-0.03
242.758	0.88
243.132	0.38
243.507	-0.03
243.881	0.16
244.255	0.45
244.629	0.06
245.004	0.72
245.378	0.34
245.752	0.35
246.126	0.19
246.5	0.23
246.874	0.31
247.248	0.24
247.622	0.4
247.996	0.11
248.37	0.18
248.744	0.31
249.118	0.25
249.492	-0
249.866	0.14
250.24	0.17
250.613	0.26
250.987	0.12
251.361	0.53
251.735	0.06
252.108	-0
252.482	0.09
252.856	0.46
253.229	0.12
253.603	0.12
253.977	0.14
254.35	0.05
254.724	0.26
255.097	0.43
255.471	0.13
255.844	0.13
256.218	0.25
256.591	0.31
256.964	0.24
257.338	0.23
257.711	0.3
258.084	0.28
258.458	0.2
258.831	0.26
259.204	0.13
259.577	0.3
259.95	0.3
260.323	0.34
260.697	0.19
261.07	0.25
261.443	0.3
261.816	0.29
262.189	0.16
262.562	0.26
262.935	0.26
263.308	0.26
263.68	0.17
264.053	0.2
264.426	0.27
264.799	0.22
265.172	0.2
265.545	0.22
265.917	0.19
266.29	0.24
266.663	0.19
267.035	0.21
267.408	0.23
267.781	0.22
268.153	0.19
268.526	0.19
268.898	0.15
269.271	0.15
269.643	0.16
270.016	0.21
270.388	0.16
270.76	0.16
271.133	0.16
271.505	0.17
271.877	0.15
272.25	0.16
272.622	0.17
272.994	0.15
273.366	0.15
273.739	0.14
274.111	0.14
274.483	0.15
274.855	0.15
275.227	0.17
275.599	0.15
275.971	0.15
276.343	0.14
276.715	0.15
277.087	0.16
277.459	0.14
277.831	0.15
278.203	0.15
278.574	0.15
278.946	0.15
279.318	0.14
279.69	0.16
280.061	0.17
280.433	0.16
280.805	0.15
281.176	0.16
281.548	0.15
281.92	0.16
282.291	0.16
282.663	0.17
283.034	0.17
283.406	0.18
283.777	0.17
284.148	0.18
284.52	0.17
284.891	0.2
285.262	0.19
285.634	0.19
286.005	0.19
286.376	0.2
286.747	0.2
287.119	0.21
287.49	0.22
287.861	0.21
288.232	0.21
288.603	0.22
288.974	0.21
289.345	0.21
289.716	0.23
290.087	0.21
290.458	0.24
290.829	0.22
291.2	0.23
291.571	0.24
291.941	0.23
292.312	0.23
292.683	0.23
293.054	0.24
293.424	0.25
293.795	0.24
294.166	0.24
294.536	0.25
294.907	0.26
295.277	0.26
295.648	0.25
296.018	0.26
296.389	0.26
296.759	0.26
297.13	0.27
297.5	0.27
297.871	0.27
298.241	0.27
298.611	0.28
298.981	0.29
299.352	0.29
299.722	0.29
300.092	0.29
300.462	0.3
300.832	0.3
301.202	0.29
301.573	0.31
301.943	0.31
302.313	0.31
302.683	0.32
303.053	0.31
303.422	0.32
303.792	0.33
304.162	0.33
304.532	0.32
304.902	0.34
305.272	0.34
305.641	0.35
306.011	0.35
306.381	0.35
306.75	0.35
307.12	0.36
307.49	0.36
307.859	0.36
308.229	0.36
308.598	0.38
308.968	0.38
309.337	0.39
309.707	0.38
310.076	0.39
310.445	0.4
310.815	0.38
311.184	0.4
311.553	0.41
311.923	0.4
312.292	0.41
312.661	0.42
313.03	0.43
313.399	0.43
313.768	0.43
314.137	0.43
314.506	0.43
314.875	0.44
315.244	0.45
315.613	0.45
315.982	0.46
316.351	0.47
316.72	0.47
317.089	0.49
317.458	0.47
317.826	0.49
318.195	0.49
318.564	0.5
318.933	0.5
319.301	0.51
319.67	0.52
320.038	0.52
320.407	0.53
320.775	0.53
321.144	0.54
321.512	0.55
321.881	0.55
322.249	0.55
322.618	0.55
322.986	0.56
323.354	0.55
323.723	0.58
324.091	0.58
324.459	0.57
324.827	0.59
325.195	0.59
325.564	0.59
325.932	0.59
326.3	0.6
326.668	0.61
327.036	0.62
327.404	0.62
327.772	0.62
328.14	0.63
328.508	0.62
328.875	0.63
329.243	0.66
329.611	0.66
329.979	0.68
330.346	0.68
330.714	0.66
331.082	0.67
331.449	0.65
331.817	0.68
332.185	0.69
332.552	0.69
332.92	0.67
333.287	0.72
333.655	0.72
334.022	0.72
334.389	0.71
334.757	0.72
335.124	0.74
335.491	0.74
335.859	0.72
336.226	0.73
336.593	0.75
336.96	0.75
337.327	0.76
337.695	0.75
338.062	0.78
338.429	0.78
338.796	0.76
339.163	0.78
339.53	0.79
339.897	0.78
340.263	0.78
340.63	0.79
340.997	0.81
341.364	0.81
341.731	0.8
342.097	0.81
342.464	0.79
342.831	0.81
343.197	0.81
343.564	0.83
343.931	0.8
344.297	0.82
344.664	0.83
345.03	0.82
345.396	0.82
345.763	0.83
346.129	0.83
346.496	0.83
346.862	0.84
347.228	0.85
347.594	0.81
347.961	0.84
348.327	0.84
348.693	0.85
349.059	0.84
349.425	0.84
349.791	0.84
350.157	0.85
350.523	0.84
350.889	0.85
351.255	0.87
351.621	0.84
351.987	0.83
352.353	0.85
352.719	0.86
353.084	0.88
353.45	0.86
353.816	0.84
354.181	0.85
354.547	0.84
354.913	0.83
355.278	0.83
355.644	0.83
356.009	0.83
356.375	0.82
356.74	0.81
357.106	0.82
357.471	0.81
357.836	0.81
358.202	0.83
358.567	0.82
358.932	0.83
359.297	0.8
359.663	0.8
360.028	0.8
360.393	0.82
360.758	0.79
361.123	0.76
361.488	0.76
361.853	0.78
362.218	0.77
362.583	0.77
362.948	0.78
363.312	0.77
363.677	0.76
364.042	0.74
364.407	0.74
364.772	0.74
365.136	0.73
365.501	0.73
365.865	0.74
366.23	0.71
366.595	0.72
366.959	0.72
367.324	0.71
367.688	0.7
368.052	0.68
368.417	0.69
368.781	0.7
369.145	0.67
369.51	0.67
369.874	0.66
370.238	0.67
370.602	0.64
370.967	0.65
371.331	0.66
371.695	0.65
372.059	0.63
372.423	0.64
372.787	0.64
373.151	0.62
373.515	0.62
373.878	0.6
374.242	0.58
374.606	0.6
374.97	0.6
375.334	0.58
375.697	0.55
376.061	0.57
376.425	0.56
376.788	0.57
377.152	0.54
377.515	0.54
377.879	0.55
378.242	0.53
378.606	0.53
378.969	0.5
379.333	0.51
379.696	0.49
380.059	0.5
380.422	0.49
380.786	0.48
381.149	0.47
381.512	0.47
381.875	0.45
382.238	0.46
382.601	0.44
382.964	0.44
383.327	0.42
383.69	0.41
384.053	0.42
384.416	0.39
384.779	0.4
385.142	0.39
385.504	0.39
385.867	0.38
386.23	0.35
386.593	0.37
386.955	0.36
387.318	0.36
387.68	0.34
388.043	0.34
388.405	0.35
388.768	0.34
389.13	0.32
389.493	0.33
389.855	0.33
390.217	0.32
390.58	0.32
390.942	0.31
391.304	0.3
391.666	0.29
392.028	0.3
392.391	0.29
392.753	0.28
393.115	0.28
393.477	0.27
393.839	0.28
394.201	0.26
394.563	0.28
394.924	0.26
395.286	0.26
395.648	0.26
396.01	0.25
396.371	0.25
396.733	0.25
397.095	0.25
397.456	0.25
397.818	0.24
398.18	0.23
398.541	0.23
398.903	0.23
399.264	0.22
399.625	0.22
399.987	0.23
400.348	0.22
400.709	0.22
401.071	0.23
401.432	0.22
401.793	0.23
402.154	0.2
402.515	0.21
402.876	0.21
403.238	0.2
403.599	0.22
403.96	0.21
404.32	0.21
404.681	0.21
405.042	0.21
405.403	0.2
405.764	0.2
406.125	0.21
406.485	0.21
406.846	0.21
407.207	0.21
407.567	0.2
407.928	0.2
408.288	0.19
408.649	0.19
409.009	0.19
409.37	0.19
409.73	0.19
410.091	0.18
410.451	0.18
410.811	0.19
411.171	0.18
411.532	0.18
411.892	0.18
412.252	0.18
412.612	0.18
412.972	0.19
413.332	0.18
413.692	0.17
414.052	0.17
414.412	0.19
414.772	0.19
415.132	0.18
415.492	0.18
415.851	0.18
416.211	0.18
416.571	0.19
416.931	0.19
417.29	0.18
417.65	0.18
418.009	0.18
418.369	0.18
418.728	0.18
419.088	0.18
419.447	0.17
419.807	0.17
420.166	0.16
420.525	0.18
420.884	0.18
421.244	0.19
421.603	0.17
421.962	0.17
422.321	0.17
422.68	0.17
423.039	0.17
423.398	0.17
423.757	0.16
424.116	0.17
424.475	0.17
424.834	0.17
425.193	0.16
425.551	0.16
425.91	0.16
426.269	0.16
426.628	0.17
426.986	0.15
427.345	0.17
427.703	0.17
428.062	0.17
428.42	0.17
428.779	0.15
429.137	0.16
429.496	0.16
429.854	0.17
430.212	0.17
430.57	0.16
430.929	0.15
431.287	0.16
431.645	0.16
432.003	0.15
432.361	0.16
432.719	0.17
433.077	0.14
433.435	0.16
433.793	0.15
434.151	0.14
434.509	0.14
434.866	0.16
435.224	0.15
435.582	0.16
435.94	0.15
436.297	0.14
436.655	0.13
437.012	0.14
437.37	0.15
437.727	0.14
438.085	0.14
438.442	0.14
438.8	0.14
439.157	0.13
439.514	0.15
439.872	0.14
440.229	0.14
440.586	0.14
440.943	0.15
441.3	0.12
441.657	0.13
442.014	0.13
442.371	0.14
442.728	0.14
443.085	0.13
443.442	0.12
443.799	0.12
444.156	0.13
444.513	0.12
444.869	0.12
445.226	0.13
445.583	0.14
445.939	0.12
446.296	0.13
446.652	0.12
447.009	0.12
447.365	0.1
447.722	0.11
448.078	0.12
448.434	0.12
448.791	0.12
449.147	0.1
449.503	0.12
449.859	0.1
450.215	0.1
450.571	0.1
450.928	0.11
451.284	0.1
451.64	0.11
451.995	0.1
452.351	0.1
452.707	0.09
453.063	0.11
453.419	0.11
453.775	0.09
454.13	0.1
454.486	0.09
454.842	0.09
455.197	0.09
455.553	0.09
455.908	0.08
456.264	0.08
456.619	0.09
456.975	0.08
457.33	0.08
457.685	0.08
458.04	0.08
458.396	0.08
458.751	0.08
459.106	0.08
459.461	0.08
459.816	0.07
460.171	0.07
460.526	0.07
460.881	0.08
461.236	0.07
461.591	0.08
461.946	0.07
462.301	0.06
462.655	0.06
463.01	0.06
463.365	0.06
463.719	0.05
464.074	0.05
464.428	0.05
464.783	0.05
465.137	0.04
465.492	0.05
465.846	0.04
466.201	0.04
466.555	0.05
466.909	0.05
467.263	0.04
467.618	0.04
467.972	0.04
468.326	0.03
468.68	0.04
469.034	0.03
469.388	0.03
469.742	0.03
470.096	0.03
470.45	0.03
470.804	0.03
471.157	0.02
471.511	0.02
471.865	0.03
472.218	0.03
472.572	0.02
472.926	0.02
473.279	0.01
473.633	0.02
473.986	0.02
474.34	0.02
474.693	0.02
475.046	0.01
475.4	0.01
475.753	0.02
476.106	0
476.459	0.01
476.812	0.01
477.165	-0
477.519	0.01
477.872	0.01
478.224	-0
478.577	0.02
478.93	0.01
479.283	0.02
479.636	0
479.989	0
480.341	-0.01
480.694	-0
481.047	0.01
481.399	-0
481.752	-0
482.104	-0
482.457	0.01
482.809	-0.01
483.162	-0.01
483.514	-0
483.866	-0.01
484.219	0
484.571	-0.01
484.923	0
485.275	0
485.627	-0
485.979	-0.01
486.331	0
486.683	0
487.035	0
487.387	0.01
487.739	0.01
488.091	-0
488.443	0
488.794	-0.01
489.146	-0.02
489.498	0
489.849	-0.01
490.201	-0.02
490.552	-0
490.904	-0
491.255	-0.01
491.607	-0
491.958	0.01
492.309	-0.01
492.661	-0
493.012	-0.01
493.363	0.01
493.714	-0.02
494.065	-0.01
494.416	0
494.767	0
495.118	-0
495.469	0
495.82	0
496.171	-0
496.522	-0.01
496.872	0
497.223	-0.01
497.574	-0.02
497.924	-0
498.275	0
498.626	0.01
498.976	-0.01
499.327	-0.01
499.677	-0.02
500.027	-0.01
500.378	-0.02
500.728	-0.04
501.078	-0.02
501.428	-0.03
501.779	-0.02
502.129	-0.01
502.479	-0.01
502.829	-0.01
503.179	-0.03
503.529	-0.02
503.879	-0.02
504.229	-0
504.578	-0.03
504.928	0
505.278	-0.02
505.628	-0.02
505.977	-0.02
506.327	-0.02
506.676	-0.03
507.026	-0.02
507.375	-0.02
507.725	-0.02
508.074	-0.02
508.424	-0.02
508.773	-0.02
509.122	-0.03
509.471	-0.02
509.82	-0.02
510.17	-0.02
510.519	-0.02
510.868	-0.02
511.217	-0
511.566	-0.02
511.915	-0.02
512.263	-0.01
512.612	-0
512.961	-0.02
513.31	-0.01
513.659	-0.02
514.007	-0.03
514.356	-0.01
514.704	-0.02
515.053	-0.01
515.401	-0.02
515.75	-0.04
516.098	-0.03
516.447	-0.03
516.795	-0.03
517.143	-0.03
517.491	-0.04
517.839	-0.04
518.188	-0.02
518.536	-0.03
518.884	-0.04
519.232	-0.03
519.58	-0.03
519.928	-0.03
520.275	-0.01
520.623	-0.01
520.971	-0.02
521.319	-0.02
521.666	-0.03
522.014	-0.04
522.362	-0.02
522.709	-0.02
523.057	-0.03
523.404	-0.03
523.752	-0.03
524.099	-0.02
524.446	-0.02
524.794	-0.04
525.141	-0.02
525.488	-0.02
525.835	-0.03
526.182	-0.03
526.529	-0.01
526.876	-0.02
527.223	-0.01
527.57	-0.03
527.917	-0.02
528.264	-0.03
528.611	-0.04
528.958	-0.02
529.304	-0.03
529.651	-0.04
529.998	-0.03
530.344	-0.04
530.691	-0.03
531.037	-0.04
531.384	-0.03
531.73	-0.03
532.076	-0.04
532.423	-0.04
532.769	-0.02
533.115	-0.02
533.461	-0.04
533.807	-0.04
534.154	-0.03
534.5	-0.02
534.846	-0.01
535.192	-0.04
535.537	-0.04
535.883	-0.03
536.229	-0.04
536.575	-0.02
536.921	-0.02
537.266	-0.02
537.612	-0.03
537.957	-0.02
538.303	-0.03
538.649	-0.03
538.994	-0.03
539.339	-0.03
539.685	-0.02
540.03	-0.04
540.375	-0.03
540.721	-0.03
541.066	-0.03
541.411	-0.03
541.756	-0.04
542.101	-0.03
542.446	-0.03
542.791	-0.03
543.136	-0.03
543.481	-0.03
543.825	-0.03
544.17	-0.04
544.515	-0.02
544.86	-0.03
545.204	-0.04
545.549	-0.02
545.893	-0.04
546.238	-0.04
546.582	-0.03
546.927	-0.04
547.271	-0.03
547.615	-0.04
547.96	-0.03
548.304	-0.03
548.648	-0.04
548.992	-0.03
549.336	-0.03
549.68	-0.03
550.024	-0.04
550.368	-0.04
550.712	-0.03
551.056	-0.03
551.4	-0.02
551.743	-0.04
552.087	-0.02
552.431	-0.03
552.774	-0.02
553.118	-0.04
553.462	-0.02
553.805	-0.03
554.148	-0.03
554.492	-0.02
554.835	-0.03
555.178	-0.03
555.522	-0.05
555.865	-0.03
556.208	-0.04
556.551	-0.04
556.894	-0.04
557.237	-0.02
557.58	-0.04
557.923	-0.03
558.266	-0.03
558.609	-0.03
558.952	-0.04
559.294	-0.02
559.637	-0.06
559.98	-0.03
560.322	-0.02
560.665	-0.04
561.007	-0.03
561.35	-0.04
561.692	-0.02
562.034	-0.04
562.377	-0.03
562.719	-0.02
563.061	-0.03
563.403	-0.03
563.745	-0.03
564.088	-0.02
564.43	-0.03
564.772	-0.03
565.113	-0.03
565.455	-0.03
565.797	-0.03
566.139	-0.04
566.481	-0.03
566.822	-0.03
567.164	-0.03
567.506	-0.04
567.847	-0.03
568.189	-0.02
568.53	-0.04
568.872	-0.02
569.213	-0.02
569.554	-0.03
569.895	-0.03
570.237	-0.03
570.578	-0.04
570.919	-0.04
571.26	-0.03
571.601	-0.02
571.942	-0.02
572.283	-0.03
572.624	-0.03
572.965	-0.02
573.306	-0.03
573.646	-0.03
573.987	-0.03
574.328	-0.04
574.668	-0.03
575.009	-0.04
575.349	-0.03
575.69	-0.02
576.03	-0.03
576.37	-0.03
576.711	-0.03
577.051	-0.03
577.391	-0.04
577.731	-0.04
578.072	-0.02
578.412	-0.03
578.752	-0.03
579.092	-0.02
579.431	-0.02
579.771	-0.02
580.111	-0.02
580.451	-0.01
580.791	-0.03
581.13	-0.02
581.47	-0.03
581.81	-0.03
582.149	-0.03
582.489	-0.03
582.828	-0.02
583.167	-0.02
583.507	-0.02
583.846	-0.03
584.185	-0.02
584.525	-0.02
584.864	-0.02
585.203	-0.03
585.542	-0.02
585.881	-0.03
586.22	-0.02
586.559	-0.03
586.898	-0.02
587.236	-0.03
587.575	-0.02
587.914	-0.03
588.252	-0.04
588.591	-0.03
588.93	-0.03
589.268	-0.03
589.607	-0.02
589.945	-0.03
590.283	-0.03
590.622	-0.02
590.96	-0.03
591.298	-0.03
591.636	-0.02
591.974	-0.04
592.313	-0.03
592.651	-0.02
592.989	-0.06
593.326	-0.03
593.664	-0.04
594.002	-0.04
594.34	-0.04
594.678	-0.04
595.015	-0.04
595.353	-0.03
595.691	-0.03
596.028	-0.03
596.366	-0.04
596.703	-0.04
597.04	-0.03
597.378	-0.02
597.715	-0.04
598.052	-0.05
598.389	-0.05
598.726	-0.04
599.064	-0.04
599.401	-0.04
599.738	-0.05
600.074	-0.04
600.411	-0.04
600.748	-0.04
601.085	-0.02
601.422	-0.04
601.758	-0.03
602.095	-0.02
602.432	-0.02
602.768	-0.03
603.105	-0.02
603.441	-0.03
603.777	-0.02
604.114	-0.03
604.45	-0.02
604.786	-0.02
605.122	-0.03
605.459	-0.03
605.795	-0.02
606.131	-0.02
606.467	-0.02
606.803	-0.03
607.139	-0.03
607.474	-0.03
607.81	-0.03
608.146	-0.03
608.482	-0.03
608.817	-0.03
609.153	-0.03
609.488	-0.04
609.824	-0.04
610.159	-0.05
610.495	-0.04
610.83	-0.04
611.165	-0.03
611.5	-0.04
611.836	-0.04
612.171	-0.03
612.506	-0.04
612.841	-0.03
613.176	-0.04
613.511	-0.04
613.845	-0.04
614.18	-0.03
614.515	-0.05
614.85	-0.04
615.184	-0.04
615.519	-0.03
615.854	-0.03
616.188	-0.04
616.523	-0.04
616.857	-0.03
617.191	-0.04
617.526	-0.02
617.86	-0.04
618.194	-0.03
618.528	-0.03
618.862	-0.04
619.196	-0.05
619.53	-0.03
619.864	-0.06
620.198	-0.03
620.532	-0.03
620.866	-0.04
621.2	-0.04
621.533	-0.03
621.867	-0.04
622.201	-0.02
622.534	-0.04
622.868	-0.02
623.201	-0.03
623.534	-0.04
623.868	-0.03
624.201	-0.03
624.534	-0.02
624.868	-0.03
625.201	-0.02
625.534	-0.03
625.867	-0.02
626.2	-0.03
626.533	-0.04
626.865	-0.03
627.198	-0.04
627.531	-0.06
627.864	-0.05
628.196	-0.04
628.529	-0.04
628.862	-0.04
629.194	-0.03
629.527	-0.04
629.859	-0.04
630.191	-0.04
630.524	-0.03
630.856	-0.04
631.188	-0.03
631.52	-0.04
631.852	-0.04
632.184	-0.05
632.516	-0.03
632.848	-0.05
633.18	-0.06
633.512	-0.05
633.844	-0.05
634.175	-0.05
634.507	-0.04
634.839	-0.06
635.17	-0.05
635.502	-0.03
635.833	-0.04
636.165	-0.04
636.496	-0.04
636.827	-0.04
637.159	-0.04
637.49	-0.04
637.821	-0.05
638.152	-0.03
638.483	-0.03
638.814	-0.04
639.145	-0.05
639.476	-0.04
639.807	-0.04
640.137	-0.04
640.468	-0.04
640.799	-0.05
641.129	-0.06
641.46	-0.05
641.791	-0.06
642.121	-0.06
642.451	-0.05
642.782	-0.06
643.112	-0.05
643.442	-0.04
643.773	-0.04
644.103	-0.05
644.433	-0.03
644.763	-0.03
645.093	-0.04
645.423	-0.03
645.753	-0.03
646.082	-0.05
646.412	-0.03
646.742	-0.04
647.072	-0.04
647.401	-0.03
647.731	-0.03
648.06	-0.04
648.39	-0.04
648.719	-0.03
649.048	-0.04
649.378	-0.04
649.707	-0.05
650.036	-0.04
650.365	-0.04
650.694	-0.04
651.023	-0.05
651.352	-0.04
651.681	-0.04
652.01	-0.03
652.339	-0.03
652.668	-0.04
652.996	-0.03
