Data from c2t_JH05_50uM_Absorbance_11-14-19-057.txt Node
Date: Thu Dec 21 11:14:19 GMT 2017
User: egn-admin
Spectrometer: OFX00224
Trigger mode: 0
Integration Time (sec): 5.000000E-2
Scans to average: 1
Nonlinearity correction enabled: false
Boxcar width: 0
Storing dark spectrum: false
XAxis mode: Wavelengths
Number of Pixels in Spectrum: 2136
>>>>>Begin Spectral Data<<<<<
154.91	0.09
155.289	-0
155.669	0.92
156.048	0.4
156.428	-0.9
156.807	0.14
157.186	-0
157.566	0.18
157.945	0.36
158.325	-0
158.704	-0
159.083	-0
159.462	0.02
159.842	-0
160.221	-0.37
160.6	0.6
160.979	-0
161.359	-0
161.738	0.2
162.117	-0
162.496	-0
162.875	-0.56
163.254	0.25
163.633	0.07
164.012	-0
164.391	-1.04
164.77	0.18
165.149	0.38
165.528	-0
165.907	-0
166.286	-0
166.665	0.8
167.044	0.37
167.423	0.09
167.802	-0
168.181	-0
168.559	-0
168.938	-0
169.317	-0.02
169.696	-0.07
170.074	-0
170.453	-0.33
170.832	-0.11
171.21	0.3
171.589	-0
171.968	-0
172.346	0.33
172.725	-0
173.103	-0
173.482	0.03
173.861	-0
174.239	0.85
174.617	-0.36
174.996	-0.08
175.374	-0
175.753	-0
176.131	-0
176.51	0.08
176.888	0.88
177.266	0.11
177.645	0.6
178.023	0.36
178.401	-0
178.779	-0.18
179.158	-0.2
179.536	-0.38
179.914	-0.67
180.292	-0
180.67	-0.09
181.048	-0.26
181.427	-0
181.805	-0.08
182.183	0.26
182.561	-0
182.939	-0
183.317	-0.11
183.695	-0
184.073	-0
184.451	-0
184.829	-0.02
185.206	0.19
185.584	-0.11
185.962	-0
186.34	-0
186.718	-0.27
187.096	-0
187.473	0.07
187.851	-0
188.229	-0.23
188.607	-0.23
188.984	0.19
189.362	0.02
189.74	0.14
190.117	0.16
190.495	0.17
190.872	-0.03
191.25	0.33
191.627	-0.31
192.005	0.03
192.382	-0.21
192.76	-0.07
193.137	0.18
193.515	0.48
193.892	0.56
194.269	-0.02
194.647	0.23
195.024	0.35
195.401	1.11
195.779	-0.08
196.156	-0.03
196.533	-0.22
196.91	-0.1
197.288	-0.67
197.665	-1.43
198.042	0.07
198.419	-0.07
198.796	0.04
199.173	-0.19
199.55	0.12
199.927	-0
200.304	-0.14
200.681	0.73
201.058	0.24
201.435	0.31
201.812	-0.17
202.189	0.58
202.566	-0.14
202.943	0.11
203.32	0.24
203.697	0.03
204.073	-0
204.45	-0
204.827	0.04
205.204	-0
205.58	0.15
205.957	0.44
206.334	0.46
206.71	-0.16
207.087	-0.03
207.464	-0.04
207.84	0.28
208.217	0.02
208.593	-0.2
208.97	-0.19
209.346	0.06
209.723	0.08
210.099	0.21
210.476	-0.22
210.852	0.13
211.228	-0.21
211.605	-0.03
211.981	0.04
212.357	-0.15
212.733	-0.02
213.11	-0.08
213.486	0.1
213.862	0.04
214.238	0.13
214.614	-0.19
214.991	-0.16
215.367	-0.2
215.743	0.19
216.119	0.08
216.495	-0.26
216.871	0.17
217.247	0.14
217.623	0.22
217.999	-0.21
218.375	-0.07
218.751	0.52
219.127	0.16
219.502	0.05
219.878	-0.11
220.254	0.11
220.63	0.09
221.006	0.41
221.381	0.04
221.757	0.18
222.133	0.18
222.508	0.15
222.884	-0.07
223.26	-0.16
223.635	0.05
224.011	0.07
224.386	0.01
224.762	0.07
225.137	0.08
225.513	0.14
225.888	-0.53
226.264	0.11
226.639	-0.06
227.014	0.02
227.39	0.15
227.765	0.09
228.14	0.03
228.516	0.15
228.891	0.14
229.266	0.6
229.641	-0
230.017	0.18
230.392	-0.02
230.767	-0.06
231.142	-0.23
231.517	0.11
231.892	0.23
232.267	0.46
232.642	0.72
233.017	0.18
233.392	0.5
233.767	0.54
234.142	0.54
234.517	0.18
234.892	0.25
235.267	0.44
235.641	-0.11
236.016	0.17
236.391	-0.05
236.766	0.04
237.14	0.42
237.515	0.22
237.89	-0.01
238.264	0.63
238.639	-0.07
239.014	-0.05
239.388	0.2
239.763	0.21
240.137	0.21
240.512	0.4
240.886	0.22
241.261	0.09
241.635	0.21
242.009	0.35
242.384	-0.02
242.758	-0.12
243.132	0.04
243.507	-0
243.881	0.36
244.255	0.18
244.629	0.06
245.004	0.47
245.378	0.35
245.752	0.52
246.126	0.1
246.5	0.17
246.874	0.3
247.248	0.21
247.622	0.15
247.996	0.12
248.37	0.1
248.744	0.58
249.118	0.29
249.492	-0
249.866	0.13
250.24	0.15
250.613	0.24
250.987	0.17
251.361	0.27
251.735	0.23
252.108	0.18
252.482	0.09
252.856	0.36
253.229	0.13
253.603	0.23
253.977	-0.03
254.35	0.22
254.724	0.24
255.097	0.59
255.471	0.11
255.844	0.4
256.218	0.29
256.591	0.37
256.964	0.16
257.338	0.28
257.711	0.37
258.084	0.28
258.458	0.16
258.831	0.31
259.204	0.36
259.577	0.26
259.95	0.23
260.323	0.38
260.697	0.26
261.07	0.32
261.443	0.32
261.816	0.38
262.189	0.29
262.562	0.3
262.935	0.28
263.308	0.26
263.68	0.22
264.053	0.27
264.426	0.25
264.799	0.32
265.172	0.31
265.545	0.26
265.917	0.34
266.29	0.28
266.663	0.25
267.035	0.26
267.408	0.31
267.781	0.27
268.153	0.26
268.526	0.26
268.898	0.21
269.271	0.24
269.643	0.25
270.016	0.25
270.388	0.24
270.76	0.17
271.133	0.22
271.505	0.2
271.877	0.2
272.25	0.21
272.622	0.17
272.994	0.21
273.366	0.17
273.739	0.2
274.111	0.19
274.483	0.21
274.855	0.18
275.227	0.19
275.599	0.2
275.971	0.16
276.343	0.18
276.715	0.19
277.087	0.19
277.459	0.17
277.831	0.19
278.203	0.17
278.574	0.19
278.946	0.17
279.318	0.18
279.69	0.21
280.061	0.19
280.433	0.2
280.805	0.19
281.176	0.2
281.548	0.19
281.92	0.21
282.291	0.2
282.663	0.2
283.034	0.21
283.406	0.2
283.777	0.2
284.148	0.21
284.52	0.21
284.891	0.21
285.262	0.21
285.634	0.22
286.005	0.23
286.376	0.23
286.747	0.23
287.119	0.24
287.49	0.24
287.861	0.24
288.232	0.24
288.603	0.26
288.974	0.25
289.345	0.24
289.716	0.28
290.087	0.27
290.458	0.25
290.829	0.27
291.2	0.26
291.571	0.27
291.941	0.26
292.312	0.27
292.683	0.27
293.054	0.27
293.424	0.27
293.795	0.28
294.166	0.29
294.536	0.29
294.907	0.28
295.277	0.29
295.648	0.3
296.018	0.3
296.389	0.3
296.759	0.3
297.13	0.3
297.5	0.31
297.871	0.3
298.241	0.3
298.611	0.3
298.981	0.32
299.352	0.31
299.722	0.32
300.092	0.31
300.462	0.33
300.832	0.32
301.202	0.32
301.573	0.33
301.943	0.33
302.313	0.32
302.683	0.35
303.053	0.33
303.422	0.35
303.792	0.35
304.162	0.36
304.532	0.35
304.902	0.36
305.272	0.35
305.641	0.36
306.011	0.37
306.381	0.36
306.75	0.36
307.12	0.36
307.49	0.37
307.859	0.37
308.229	0.37
308.598	0.38
308.968	0.38
309.337	0.37
309.707	0.38
310.076	0.38
310.445	0.38
310.815	0.38
311.184	0.38
311.553	0.39
311.923	0.39
312.292	0.39
312.661	0.39
313.03	0.4
313.399	0.39
313.768	0.39
314.137	0.39
314.506	0.39
314.875	0.4
315.244	0.39
315.613	0.39
315.982	0.38
316.351	0.4
316.72	0.4
317.089	0.41
317.458	0.4
317.826	0.41
318.195	0.4
318.564	0.41
318.933	0.4
319.301	0.4
319.67	0.39
320.038	0.4
320.407	0.4
320.775	0.41
321.144	0.41
321.512	0.41
321.881	0.4
322.249	0.39
322.618	0.4
322.986	0.4
323.354	0.39
323.723	0.4
324.091	0.41
324.459	0.4
324.827	0.4
325.195	0.39
325.564	0.4
325.932	0.4
326.3	0.4
326.668	0.39
327.036	0.39
327.404	0.39
327.772	0.38
328.14	0.38
328.508	0.38
328.875	0.38
329.243	0.4
329.611	0.41
329.979	0.4
330.346	0.39
330.714	0.38
331.082	0.37
331.449	0.37
331.817	0.37
332.185	0.37
332.552	0.38
332.92	0.36
333.287	0.38
333.655	0.38
334.022	0.38
334.389	0.38
334.757	0.38
335.124	0.36
335.491	0.37
335.859	0.37
336.226	0.36
336.593	0.35
336.96	0.35
337.327	0.34
337.695	0.35
338.062	0.35
338.429	0.35
338.796	0.35
339.163	0.35
339.53	0.33
339.897	0.34
340.263	0.34
340.63	0.33
340.997	0.33
341.364	0.33
341.731	0.33
342.097	0.33
342.464	0.32
342.831	0.32
343.197	0.32
343.564	0.31
343.931	0.31
344.297	0.31
344.664	0.31
345.03	0.3
345.396	0.3
345.763	0.31
346.129	0.29
346.496	0.3
346.862	0.3
347.228	0.29
347.594	0.28
347.961	0.29
348.327	0.28
348.693	0.28
349.059	0.28
349.425	0.29
349.791	0.28
350.157	0.27
350.523	0.28
350.889	0.28
351.255	0.28
351.621	0.28
351.987	0.26
352.353	0.28
352.719	0.27
353.084	0.27
353.45	0.26
353.816	0.27
354.181	0.27
354.547	0.26
354.913	0.25
355.278	0.25
355.644	0.24
356.009	0.25
356.375	0.24
356.74	0.23
357.106	0.23
357.471	0.23
357.836	0.22
358.202	0.23
358.567	0.23
358.932	0.23
359.297	0.22
359.663	0.23
360.028	0.23
360.393	0.22
360.758	0.22
361.123	0.22
361.488	0.21
361.853	0.22
362.218	0.22
362.583	0.21
362.948	0.2
363.312	0.21
363.677	0.2
364.042	0.2
364.407	0.2
364.772	0.2
365.136	0.19
365.501	0.21
365.865	0.21
366.23	0.19
366.595	0.19
366.959	0.19
367.324	0.18
367.688	0.19
368.052	0.18
368.417	0.18
368.781	0.19
369.145	0.18
369.51	0.17
369.874	0.17
370.238	0.17
370.602	0.15
370.967	0.16
371.331	0.17
371.695	0.17
372.059	0.16
372.423	0.17
372.787	0.17
373.151	0.17
373.515	0.16
373.878	0.15
374.242	0.16
374.606	0.16
374.97	0.15
375.334	0.14
375.697	0.14
376.061	0.15
376.425	0.15
376.788	0.15
377.152	0.14
377.515	0.15
377.879	0.14
378.242	0.14
378.606	0.14
378.969	0.14
379.333	0.15
379.696	0.13
380.059	0.13
380.422	0.14
380.786	0.12
381.149	0.13
381.512	0.13
381.875	0.13
382.238	0.12
382.601	0.11
382.964	0.11
383.327	0.1
383.69	0.11
384.053	0.11
384.416	0.11
384.779	0.1
385.142	0.11
385.504	0.1
385.867	0.11
386.23	0.1
386.593	0.1
386.955	0.1
387.318	0.11
387.68	0.1
388.043	0.1
388.405	0.11
388.768	0.1
389.13	0.08
389.493	0.1
389.855	0.11
390.217	0.11
390.58	0.1
390.942	0.09
391.304	0.09
391.666	0.09
392.028	0.1
392.391	0.1
392.753	0.09
393.115	0.09
393.477	0.09
393.839	0.1
394.201	0.09
394.563	0.11
394.924	0.1
395.286	0.1
395.648	0.1
396.01	0.09
396.371	0.1
396.733	0.09
397.095	0.09
397.456	0.1
397.818	0.09
398.18	0.1
398.541	0.09
398.903	0.1
399.264	0.09
399.625	0.09
399.987	0.1
400.348	0.1
400.709	0.1
401.071	0.1
401.432	0.1
401.793	0.1
402.154	0.09
402.515	0.1
402.876	0.09
403.238	0.1
403.599	0.11
403.96	0.11
404.32	0.1
404.681	0.11
405.042	0.12
405.403	0.11
405.764	0.11
406.125	0.13
406.485	0.11
406.846	0.13
407.207	0.12
407.567	0.11
407.928	0.12
408.288	0.12
408.649	0.12
409.009	0.11
409.37	0.11
409.73	0.11
410.091	0.11
410.451	0.11
410.811	0.12
411.171	0.11
411.532	0.12
411.892	0.11
412.252	0.11
412.612	0.11
412.972	0.12
413.332	0.12
413.692	0.12
414.052	0.12
414.412	0.12
414.772	0.14
415.132	0.12
415.492	0.14
415.851	0.13
416.211	0.13
416.571	0.13
416.931	0.13
417.29	0.13
417.65	0.13
418.009	0.14
418.369	0.14
418.728	0.13
419.088	0.13
419.447	0.14
419.807	0.13
420.166	0.13
420.525	0.15
420.884	0.14
421.244	0.15
421.603	0.14
421.962	0.13
422.321	0.14
422.68	0.15
423.039	0.14
423.398	0.13
423.757	0.13
424.116	0.15
424.475	0.15
424.834	0.16
425.193	0.15
425.551	0.14
425.91	0.14
426.269	0.15
426.628	0.15
426.986	0.14
427.345	0.16
427.703	0.16
428.062	0.16
428.42	0.15
428.779	0.15
429.137	0.15
429.496	0.17
429.854	0.16
430.212	0.16
430.57	0.16
430.929	0.15
431.287	0.16
431.645	0.15
432.003	0.16
432.361	0.17
432.719	0.17
433.077	0.16
433.435	0.15
433.793	0.15
434.151	0.16
434.509	0.15
434.866	0.15
435.224	0.17
435.582	0.17
435.94	0.16
436.297	0.16
436.655	0.15
437.012	0.15
437.37	0.15
437.727	0.14
438.085	0.17
438.442	0.15
438.8	0.16
439.157	0.16
439.514	0.17
439.872	0.16
440.229	0.15
440.586	0.15
440.943	0.16
441.3	0.15
441.657	0.15
442.014	0.15
442.371	0.17
442.728	0.16
443.085	0.15
443.442	0.15
443.799	0.14
444.156	0.15
444.513	0.14
444.869	0.14
445.226	0.15
445.583	0.15
445.939	0.15
446.296	0.16
446.652	0.15
447.009	0.14
447.365	0.15
447.722	0.14
448.078	0.14
448.434	0.15
448.791	0.15
449.147	0.14
449.503	0.13
449.859	0.13
450.215	0.12
450.571	0.13
450.928	0.13
451.284	0.13
451.64	0.14
451.995	0.14
452.351	0.13
452.707	0.12
453.063	0.13
453.419	0.13
453.775	0.12
454.13	0.14
454.486	0.11
454.842	0.13
455.197	0.11
455.553	0.12
455.908	0.12
456.264	0.12
456.619	0.11
456.975	0.12
457.33	0.1
457.685	0.11
458.04	0.11
458.396	0.1
458.751	0.12
459.106	0.11
459.461	0.11
459.816	0.11
460.171	0.11
460.526	0.11
460.881	0.11
461.236	0.1
461.591	0.1
461.946	0.1
462.301	0.09
462.655	0.09
463.01	0.1
463.365	0.09
463.719	0.09
464.074	0.09
464.428	0.08
464.783	0.08
465.137	0.08
465.492	0.08
465.846	0.07
466.201	0.08
466.555	0.08
466.909	0.08
467.263	0.08
467.618	0.08
467.972	0.07
468.326	0.07
468.68	0.07
469.034	0.08
469.388	0.06
469.742	0.06
470.096	0.06
470.45	0.07
470.804	0.06
471.157	0.06
471.511	0.05
471.865	0.06
472.218	0.06
472.572	0.06
472.926	0.04
473.279	0.06
473.633	0.06
473.986	0.06
474.34	0.05
474.693	0.05
475.046	0.04
475.4	0.05
475.753	0.05
476.106	0.04
476.459	0.04
476.812	0.05
477.165	0.04
477.519	0.04
477.872	0.05
478.224	0.02
478.577	0.05
478.93	0.05
479.283	0.04
479.636	0.03
479.989	0.03
480.341	0.03
480.694	0.04
481.047	0.04
481.399	0.04
481.752	0.03
482.104	0.03
482.457	0.03
482.809	0.02
483.162	0.03
483.514	0.02
483.866	0.02
484.219	0.02
484.571	0.02
484.923	0.03
485.275	0.03
485.627	0.03
485.979	0.02
486.331	0.02
486.683	0.02
487.035	0.03
487.387	0.02
487.739	0.03
488.091	0.03
488.443	0.02
488.794	0.02
489.146	0.02
489.498	0.02
489.849	-0
490.201	0.01
490.552	0.02
490.904	0
491.255	0.02
491.607	0.01
491.958	0.01
492.309	0.01
492.661	0.01
493.012	0.01
493.363	0.03
493.714	0
494.065	0
494.416	0.01
494.767	0.01
495.118	0
495.469	0.01
495.82	0.02
496.171	0.01
496.522	0.01
496.872	0.01
497.223	-0.01
497.574	-0.01
497.924	0.01
498.275	0.02
498.626	0.01
498.976	-0.01
499.327	0
499.677	-0.01
500.027	-0.01
500.378	0
500.728	-0.01
501.078	-0
501.428	-0.01
501.779	-0.01
502.129	-0.01
502.479	0
502.829	-0
503.179	-0.01
503.529	-0
503.879	-0
504.229	0.01
504.578	-0.01
504.928	0.01
505.278	-0.01
505.628	-0
505.977	-0.01
506.327	-0.01
506.676	-0
507.026	-0
507.375	-0.02
507.725	-0.01
508.074	-0
508.424	-0.02
508.773	-0.01
509.122	-0.01
509.471	-0.01
509.82	-0
510.17	-0.01
510.519	0
510.868	-0.02
511.217	-0.01
511.566	-0.01
511.915	-0.01
512.263	-0.02
512.612	0
512.961	-0.01
513.31	0.01
513.659	-0
514.007	-0.03
514.356	-0.01
514.704	-0.02
515.053	-0.01
515.401	-0.01
515.75	-0.02
516.098	-0.03
516.447	-0.01
516.795	-0.02
517.143	-0.02
517.491	-0.02
517.839	-0.03
518.188	-0.02
518.536	-0.03
518.884	-0.02
519.232	-0.03
519.58	-0.03
519.928	-0.01
520.275	-0.01
520.623	-0.02
520.971	-0.03
521.319	-0.02
521.666	-0.02
522.014	-0.04
522.362	-0.02
522.709	-0.03
523.057	-0.03
523.404	-0.03
523.752	-0.01
524.099	-0.02
524.446	-0.02
524.794	-0.05
525.141	-0.02
525.488	-0.02
525.835	-0.01
526.182	-0.02
526.529	-0.02
526.876	-0.03
527.223	-0.02
527.57	-0.02
527.917	-0.03
528.264	-0.03
528.611	-0.03
528.958	-0.03
529.304	-0.02
529.651	-0.04
529.998	-0.04
530.344	-0.03
530.691	-0.03
531.037	-0.03
531.384	-0.03
531.73	-0.04
532.076	-0.04
532.423	-0.03
532.769	-0.03
533.115	-0.01
533.461	-0.03
533.807	-0.02
534.154	-0.02
534.5	-0.02
534.846	-0.01
535.192	-0.03
535.537	-0.03
535.883	-0.03
536.229	-0.03
536.575	-0.01
536.921	-0.02
537.266	-0.03
537.612	-0.04
537.957	-0
538.303	-0.03
538.649	-0.01
538.994	-0.03
539.339	-0.03
539.685	-0.03
540.03	-0.03
540.375	-0.03
540.721	-0.03
541.066	-0.02
541.411	-0.02
541.756	-0.03
542.101	-0.02
542.446	-0.02
542.791	-0.02
543.136	-0.04
543.481	-0.03
543.825	-0.03
544.17	-0.04
544.515	-0.03
544.86	-0.03
545.204	-0.03
545.549	-0.03
545.893	-0.05
546.238	-0.04
546.582	-0.02
546.927	-0.04
547.271	-0.02
547.615	-0.03
547.96	-0.04
548.304	-0.03
548.648	-0.03
548.992	-0.03
549.336	-0.03
549.68	-0.03
550.024	-0.05
550.368	-0.02
550.712	-0.04
551.056	-0.03
551.4	-0.02
551.743	-0.03
552.087	-0.01
552.431	-0.02
552.774	-0.02
553.118	-0.04
553.462	-0.03
553.805	-0.01
554.148	-0.03
554.492	-0.02
554.835	-0.03
555.178	-0.02
555.522	-0.04
555.865	-0.03
556.208	-0.04
556.551	-0.04
556.894	-0.04
557.237	-0.02
557.58	-0.04
557.923	-0.04
558.266	-0.04
558.609	-0.02
558.952	-0.03
559.294	-0.02
559.637	-0.04
559.98	-0.03
560.322	-0.03
560.665	-0.03
561.007	-0.03
561.35	-0.05
561.692	-0.03
562.034	-0.03
562.377	-0.03
562.719	-0.02
563.061	-0.03
563.403	-0.03
563.745	-0.04
564.088	-0.03
564.43	-0.02
564.772	-0.02
565.113	-0.03
565.455	-0.02
565.797	-0.02
566.139	-0.03
566.481	-0.04
566.822	-0.03
567.164	-0.03
567.506	-0.02
567.847	-0.04
568.189	-0.02
568.53	-0.04
568.872	-0.03
569.213	-0.03
569.554	-0.03
569.895	-0.02
570.237	-0.03
570.578	-0.04
570.919	-0.04
571.26	-0.03
571.601	-0.02
571.942	-0.03
572.283	-0.02
572.624	-0.03
572.965	-0.02
573.306	-0.03
573.646	-0.03
573.987	-0.03
574.328	-0.04
574.668	-0.03
575.009	-0.03
575.349	-0.04
575.69	-0.02
576.03	-0.03
576.37	-0.03
576.711	-0.03
577.051	-0.02
577.391	-0.03
577.731	-0.04
578.072	-0.03
578.412	-0.03
578.752	-0.03
579.092	-0.03
579.431	-0.03
579.771	-0.03
580.111	-0.02
580.451	-0.02
580.791	-0.04
581.13	-0.02
581.47	-0.03
581.81	-0.03
582.149	-0.03
582.489	-0.03
582.828	-0.03
583.167	-0.03
583.507	-0.01
583.846	-0.03
584.185	-0.02
584.525	-0.03
584.864	-0.03
585.203	-0.03
585.542	-0.02
585.881	-0.03
586.22	-0.03
586.559	-0.03
586.898	-0.03
587.236	-0.03
587.575	-0.03
587.914	-0.04
588.252	-0.04
588.591	-0.03
588.93	-0.03
589.268	-0.04
589.607	-0.02
589.945	-0.02
590.283	-0.03
590.622	-0.03
590.96	-0.04
591.298	-0.03
591.636	-0.02
591.974	-0.04
592.313	-0.02
592.651	-0.04
592.989	-0.05
593.326	-0.04
593.664	-0.04
594.002	-0.03
594.34	-0.03
594.678	-0.04
595.015	-0.04
595.353	-0.03
595.691	-0.03
596.028	-0.03
596.366	-0.04
596.703	-0.04
597.04	-0.04
597.378	-0.03
597.715	-0.04
598.052	-0.04
598.389	-0.05
598.726	-0.03
599.064	-0.04
599.401	-0.04
599.738	-0.04
600.074	-0.03
600.411	-0.05
600.748	-0.03
601.085	-0.03
601.422	-0.04
601.758	-0.03
602.095	-0.02
602.432	-0.02
602.768	-0.03
603.105	-0.02
603.441	-0.03
603.777	-0.02
604.114	-0.02
604.45	-0.04
604.786	-0.03
605.122	-0.03
605.459	-0.03
605.795	-0.03
606.131	-0.02
606.467	-0.02
606.803	-0.02
607.139	-0.03
607.474	-0.02
607.81	-0.03
608.146	-0.03
608.482	-0.03
608.817	-0.04
609.153	-0.02
609.488	-0.04
609.824	-0.03
610.159	-0.05
610.495	-0.04
610.83	-0.03
611.165	-0.04
611.5	-0.05
611.836	-0.03
612.171	-0.03
612.506	-0.04
612.841	-0.02
613.176	-0.03
613.511	-0.03
613.845	-0.05
614.18	-0.04
614.515	-0.05
614.85	-0.04
615.184	-0.03
615.519	-0.03
615.854	-0.04
616.188	-0.04
616.523	-0.04
616.857	-0.03
617.191	-0.03
617.526	-0.02
617.86	-0.03
618.194	-0.03
618.528	-0.04
618.862	-0.05
619.196	-0.03
619.53	-0.03
619.864	-0.05
620.198	-0.03
620.532	-0.04
620.866	-0.04
621.2	-0.03
621.533	-0.03
621.867	-0.03
622.201	-0.02
622.534	-0.04
622.868	-0.04
623.201	-0.04
623.534	-0.03
623.868	-0.03
624.201	-0.03
624.534	-0.02
624.868	-0.03
625.201	-0.03
625.534	-0.03
625.867	-0.03
626.2	-0.03
626.533	-0.04
626.865	-0.05
627.198	-0.04
627.531	-0.05
627.864	-0.05
628.196	-0.04
628.529	-0.05
628.862	-0.04
629.194	-0.03
629.527	-0.04
629.859	-0.04
630.191	-0.04
630.524	-0.03
630.856	-0.04
631.188	-0.04
631.52	-0.04
631.852	-0.04
632.184	-0.04
632.516	-0.04
632.848	-0.04
633.18	-0.05
633.512	-0.04
633.844	-0.05
634.175	-0.05
634.507	-0.04
634.839	-0.04
635.17	-0.04
635.502	-0.03
635.833	-0.04
636.165	-0.04
636.496	-0.04
636.827	-0.04
637.159	-0.04
637.49	-0.04
637.821	-0.05
638.152	-0.03
638.483	-0.02
638.814	-0.04
639.145	-0.05
639.476	-0.04
639.807	-0.04
640.137	-0.04
640.468	-0.03
640.799	-0.04
641.129	-0.05
641.46	-0.05
641.791	-0.06
642.121	-0.06
642.451	-0.05
642.782	-0.06
643.112	-0.05
643.442	-0.05
643.773	-0.05
644.103	-0.05
644.433	-0.04
644.763	-0.03
645.093	-0.04
645.423	-0.04
645.753	-0.04
646.082	-0.06
646.412	-0.04
646.742	-0.03
647.072	-0.05
647.401	-0.04
647.731	-0.05
648.06	-0.04
648.39	-0.04
648.719	-0.04
649.048	-0.05
649.378	-0.04
649.707	-0.04
650.036	-0.04
650.365	-0.05
650.694	-0.04
651.023	-0.03
651.352	-0.04
651.681	-0.04
652.01	-0.04
652.339	-0.03
652.668	-0.04
652.996	-0.03
653.325	-0.04
