Data from c2t_JH05_50uM_Absorbance_11-14-33-027.txt Node
Date: Thu Dec 21 11:14:33 GMT 2017
User: egn-admin
Spectrometer: OFX00224
Trigger mode: 0
Integration Time (sec): 5.000000E-2
Scans to average: 1
Nonlinearity correction enabled: false
Boxcar width: 0
Storing dark spectrum: false
XAxis mode: Wavelengths
Number of Pixels in Spectrum: 2136
>>>>>Begin Spectral Data<<<<<
154.91	-0
155.289	-0.1
155.669	0.28
156.048	-0
156.428	-0
156.807	-0
157.186	-0
157.566	0.78
157.945	0.16
158.325	-0.95
158.704	-0
159.083	-0
159.462	-0.06
159.842	-1
160.221	-0.34
160.6	0.04
160.979	-0.65
161.359	-0
161.738	0.09
162.117	-0
162.496	-0
162.875	-0
163.254	-0.09
163.633	0.37
164.012	-0
164.391	-0.3
164.77	-0.43
165.149	-0.07
165.528	0.37
165.907	-0
166.286	-0.04
166.665	-0
167.044	0.15
167.423	-0.19
167.802	-0
168.181	-0
168.559	-0.48
168.938	-0
169.317	0.14
169.696	-0.05
170.074	0.42
170.453	0.9
170.832	-0.39
171.21	-0.22
171.589	0.48
171.968	0.26
172.346	-0
172.725	-0
173.103	-0.16
173.482	0.03
173.861	-0
174.239	-0.23
174.617	0.15
174.996	0.4
175.374	-1.2
175.753	-0.65
176.131	-0.27
176.51	0.48
176.888	0.22
177.266	-0.12
177.645	0.4
178.023	0.09
178.401	-0.1
178.779	0.3
179.158	1
179.536	-0.72
179.914	-0.58
180.292	0.3
180.67	1.46
181.048	-0
181.427	-0
181.805	0.19
182.183	0.14
182.561	-0
182.939	0.51
183.317	-0.43
183.695	-0.73
184.073	0.7
184.451	-0
184.829	0.1
185.206	0.37
185.584	-0.11
185.962	-0
186.34	-0
186.718	-0.31
187.096	0.81
187.473	0.58
187.851	-0
188.229	-0
188.607	-0.16
188.984	0.42
189.362	1.09
189.74	0.18
190.117	-0
190.495	0.07
190.872	0.7
191.25	0.5
191.627	0.24
192.005	0.1
192.382	-0.21
192.76	-0.1
193.137	0.7
193.515	0.06
193.892	0.89
194.269	0.05
194.647	0.28
195.024	-0
195.401	0.23
195.779	0.04
196.156	0.62
196.533	-0
196.91	-0.16
197.288	-0
197.665	-1.15
198.042	-0.12
198.419	0.37
198.796	0.28
199.173	0.15
199.55	-0.94
199.927	-0.42
200.304	-0.05
200.681	-0.38
201.058	0.22
201.435	-0.08
201.812	-0.1
202.189	0.01
202.566	0.1
202.943	0.23
203.32	0.12
203.697	0.07
204.073	-0.04
204.45	0.33
204.827	-0.03
205.204	0.07
205.58	0.47
205.957	-0.16
206.334	0.1
206.71	0.34
207.087	-0.16
207.464	-0.02
207.84	0.3
208.217	-0.01
208.593	-0.22
208.97	-0.21
209.346	0.26
209.723	0.12
210.099	0.08
210.476	-0.21
210.852	-0.13
211.228	0.94
211.605	0.11
211.981	0.12
212.357	0.21
212.733	0.24
213.11	0.08
213.486	-0.02
213.862	0.36
214.238	0.05
214.614	-0.03
214.991	-0.03
215.367	0.28
215.743	-0.22
216.119	0.15
216.495	0.15
216.871	0.08
217.247	0.41
217.623	-0.02
217.999	0.21
218.375	0.19
218.751	0.37
219.127	0.19
219.502	-0.01
219.878	-0.04
220.254	0.03
220.63	-0.17
221.006	-0
221.381	0.15
221.757	0.03
222.133	0.06
222.508	0.83
222.884	0.28
223.26	0.1
223.635	-0.04
224.011	0.12
224.386	0.43
224.762	-0.11
225.137	0.14
225.513	0.04
225.888	-0.72
226.264	0.26
226.639	0.13
227.014	0.32
227.39	-0
227.765	0.05
228.14	0.03
228.516	0.31
228.891	-0.17
229.266	-0.08
229.641	-0
230.017	0.2
230.392	-0.18
230.767	-0.2
231.142	0.06
231.517	0.11
231.892	0.04
232.267	0.27
232.642	-0
233.017	0.15
233.392	0.37
233.767	0.24
234.142	0.2
234.517	0.15
234.892	0.25
235.267	0.1
235.641	0.29
236.016	0.21
236.391	-0.04
236.766	0.08
237.14	0.6
237.515	0.4
237.89	0.32
238.264	0.54
238.639	0.37
239.014	0.17
239.388	0.4
239.763	0.41
240.137	0.29
240.512	0.32
240.886	1.23
241.261	0.18
241.635	0.18
242.009	0.27
242.384	0.01
242.758	0.55
243.132	0.06
243.507	0.24
243.881	0.34
244.255	0.07
244.629	0.38
245.004	0.87
245.378	0.31
245.752	0.22
246.126	-0
246.5	0.1
246.874	0.17
247.248	0.3
247.622	0.2
247.996	0.26
248.37	0.26
248.744	0.56
249.118	0.01
249.492	-0
249.866	0.23
250.24	0.17
250.613	0.13
250.987	0.3
251.361	0.2
251.735	0.1
252.108	0.05
252.482	0.08
252.856	0.34
253.229	0.21
253.603	0.12
253.977	0.21
254.35	0.17
254.724	0.21
255.097	0.33
255.471	0.44
255.844	0.23
256.218	0.27
256.591	0.33
256.964	0.22
257.338	0.24
257.711	0.46
258.084	0.25
258.458	0.3
258.831	0.3
259.204	0.2
259.577	0.22
259.95	0.21
260.323	0.26
260.697	0.18
261.07	0.22
261.443	0.26
261.816	0.3
262.189	0.19
262.562	0.29
262.935	0.31
263.308	0.22
263.68	0.18
264.053	0.15
264.426	0.26
264.799	0.26
265.172	0.21
265.545	0.19
265.917	0.16
266.29	0.23
266.663	0.19
267.035	0.21
267.408	0.22
267.781	0.15
268.153	0.19
268.526	0.18
268.898	0.17
269.271	0.18
269.643	0.18
270.016	0.2
270.388	0.17
270.76	0.16
271.133	0.15
271.505	0.15
271.877	0.13
272.25	0.17
272.622	0.13
272.994	0.16
273.366	0.16
273.739	0.17
274.111	0.17
274.483	0.14
274.855	0.16
275.227	0.17
275.599	0.16
275.971	0.15
276.343	0.16
276.715	0.18
277.087	0.16
277.459	0.15
277.831	0.15
278.203	0.16
278.574	0.17
278.946	0.15
279.318	0.18
279.69	0.17
280.061	0.16
280.433	0.16
280.805	0.18
281.176	0.17
281.548	0.16
281.92	0.17
282.291	0.17
282.663	0.18
283.034	0.19
283.406	0.18
283.777	0.17
284.148	0.18
284.52	0.18
284.891	0.2
285.262	0.18
285.634	0.2
286.005	0.2
286.376	0.21
286.747	0.2
287.119	0.21
287.49	0.21
287.861	0.22
288.232	0.22
288.603	0.23
288.974	0.24
289.345	0.21
289.716	0.24
290.087	0.22
290.458	0.24
290.829	0.23
291.2	0.25
291.571	0.26
291.941	0.24
292.312	0.25
292.683	0.24
293.054	0.24
293.424	0.25
293.795	0.26
294.166	0.25
294.536	0.27
294.907	0.26
295.277	0.27
295.648	0.26
296.018	0.28
296.389	0.28
296.759	0.28
297.13	0.27
297.5	0.27
297.871	0.27
298.241	0.27
298.611	0.29
298.981	0.29
299.352	0.29
299.722	0.29
300.092	0.29
300.462	0.31
300.832	0.31
301.202	0.3
301.573	0.32
301.943	0.3
302.313	0.31
302.683	0.31
303.053	0.32
303.422	0.33
303.792	0.32
304.162	0.34
304.532	0.33
304.902	0.34
305.272	0.34
305.641	0.36
306.011	0.35
306.381	0.36
306.75	0.36
307.12	0.36
307.49	0.37
307.859	0.37
308.229	0.36
308.598	0.37
308.968	0.38
309.337	0.38
309.707	0.37
310.076	0.37
310.445	0.4
310.815	0.39
311.184	0.4
311.553	0.39
311.923	0.41
312.292	0.41
312.661	0.42
313.03	0.41
313.399	0.42
313.768	0.42
314.137	0.42
314.506	0.42
314.875	0.43
315.244	0.45
315.613	0.45
315.982	0.44
316.351	0.45
316.72	0.45
317.089	0.46
317.458	0.45
317.826	0.47
318.195	0.48
318.564	0.47
318.933	0.47
319.301	0.48
319.67	0.48
320.038	0.5
320.407	0.49
320.775	0.51
321.144	0.5
321.512	0.52
321.881	0.52
322.249	0.51
322.618	0.52
322.986	0.52
323.354	0.5
323.723	0.53
324.091	0.54
324.459	0.55
324.827	0.54
325.195	0.55
325.564	0.55
325.932	0.56
326.3	0.56
326.668	0.55
327.036	0.56
327.404	0.57
327.772	0.57
328.14	0.59
328.508	0.57
328.875	0.59
329.243	0.61
329.611	0.63
329.979	0.62
330.346	0.61
330.714	0.61
331.082	0.61
331.449	0.61
331.817	0.6
332.185	0.61
332.552	0.62
332.92	0.63
333.287	0.65
333.655	0.65
334.022	0.65
334.389	0.65
334.757	0.65
335.124	0.66
335.491	0.66
335.859	0.67
336.226	0.66
336.593	0.64
336.96	0.68
337.327	0.66
337.695	0.67
338.062	0.67
338.429	0.68
338.796	0.68
339.163	0.68
339.53	0.69
339.897	0.71
340.263	0.69
340.63	0.7
340.997	0.7
341.364	0.71
341.731	0.69
342.097	0.69
342.464	0.69
342.831	0.71
343.197	0.71
343.564	0.71
343.931	0.71
344.297	0.71
344.664	0.72
345.03	0.7
345.396	0.7
345.763	0.71
346.129	0.72
346.496	0.71
346.862	0.72
347.228	0.73
347.594	0.71
347.961	0.72
348.327	0.72
348.693	0.71
349.059	0.72
349.425	0.72
349.791	0.72
350.157	0.73
350.523	0.71
350.889	0.73
351.255	0.72
351.621	0.73
351.987	0.72
352.353	0.73
352.719	0.73
353.084	0.72
353.45	0.72
353.816	0.72
354.181	0.7
354.547	0.72
354.913	0.72
355.278	0.71
355.644	0.7
356.009	0.72
356.375	0.69
356.74	0.69
357.106	0.69
357.471	0.69
357.836	0.69
358.202	0.7
358.567	0.7
358.932	0.7
359.297	0.68
359.663	0.68
360.028	0.69
360.393	0.67
360.758	0.68
361.123	0.67
361.488	0.66
361.853	0.68
362.218	0.65
362.583	0.66
362.948	0.66
363.312	0.65
363.677	0.64
364.042	0.64
364.407	0.62
364.772	0.62
365.136	0.6
365.501	0.61
365.865	0.63
366.23	0.6
366.595	0.61
366.959	0.6
367.324	0.61
367.688	0.61
368.052	0.59
368.417	0.59
368.781	0.6
369.145	0.57
369.51	0.56
369.874	0.58
370.238	0.55
370.602	0.56
370.967	0.55
371.331	0.54
371.695	0.54
372.059	0.53
372.423	0.54
372.787	0.54
373.151	0.52
373.515	0.5
373.878	0.5
374.242	0.5
374.606	0.49
374.97	0.48
375.334	0.48
375.697	0.47
376.061	0.49
376.425	0.48
376.788	0.48
377.152	0.46
377.515	0.47
377.879	0.45
378.242	0.44
378.606	0.44
378.969	0.44
379.333	0.43
379.696	0.43
380.059	0.41
380.422	0.41
380.786	0.4
381.149	0.39
381.512	0.39
381.875	0.38
382.238	0.38
382.601	0.38
382.964	0.35
383.327	0.36
383.69	0.35
384.053	0.36
384.416	0.34
384.779	0.34
385.142	0.32
385.504	0.33
385.867	0.33
386.23	0.31
386.593	0.31
386.955	0.3
387.318	0.3
387.68	0.29
388.043	0.28
388.405	0.29
388.768	0.28
389.13	0.27
389.493	0.28
389.855	0.27
390.217	0.27
390.58	0.27
390.942	0.25
391.304	0.25
391.666	0.26
392.028	0.25
392.391	0.25
392.753	0.24
393.115	0.24
393.477	0.24
393.839	0.24
394.201	0.23
394.563	0.24
394.924	0.22
395.286	0.23
395.648	0.22
396.01	0.22
396.371	0.22
396.733	0.22
397.095	0.21
397.456	0.21
397.818	0.2
398.18	0.2
398.541	0.19
398.903	0.2
399.264	0.2
399.625	0.2
399.987	0.2
400.348	0.2
400.709	0.2
401.071	0.2
401.432	0.19
401.793	0.2
402.154	0.18
402.515	0.18
402.876	0.19
403.238	0.19
403.599	0.19
403.96	0.19
404.32	0.19
404.681	0.18
405.042	0.19
405.403	0.18
405.764	0.19
406.125	0.19
406.485	0.19
406.846	0.19
407.207	0.19
407.567	0.18
407.928	0.18
408.288	0.17
408.649	0.18
409.009	0.18
409.37	0.18
409.73	0.18
410.091	0.17
410.451	0.16
410.811	0.15
411.171	0.15
411.532	0.15
411.892	0.16
412.252	0.16
412.612	0.16
412.972	0.16
413.332	0.15
413.692	0.16
414.052	0.17
414.412	0.16
414.772	0.17
415.132	0.16
415.492	0.17
415.851	0.17
416.211	0.18
416.571	0.17
416.931	0.17
417.29	0.18
417.65	0.17
418.009	0.18
418.369	0.17
418.728	0.18
419.088	0.17
419.447	0.16
419.807	0.17
420.166	0.16
420.525	0.18
420.884	0.17
421.244	0.16
421.603	0.16
421.962	0.16
422.321	0.16
422.68	0.17
423.039	0.17
423.398	0.16
423.757	0.16
424.116	0.16
424.475	0.17
424.834	0.16
425.193	0.17
425.551	0.15
425.91	0.16
426.269	0.15
426.628	0.17
426.986	0.14
427.345	0.16
427.703	0.16
428.062	0.16
428.42	0.16
428.779	0.16
429.137	0.16
429.496	0.16
429.854	0.16
430.212	0.17
430.57	0.16
430.929	0.16
431.287	0.15
431.645	0.15
432.003	0.16
432.361	0.16
432.719	0.16
433.077	0.15
433.435	0.16
433.793	0.15
434.151	0.14
434.509	0.14
434.866	0.15
435.224	0.15
435.582	0.16
435.94	0.16
436.297	0.14
436.655	0.14
437.012	0.14
437.37	0.15
437.727	0.14
438.085	0.15
438.442	0.13
438.8	0.14
439.157	0.13
439.514	0.15
439.872	0.15
440.229	0.15
440.586	0.14
440.943	0.15
441.3	0.12
441.657	0.13
442.014	0.13
442.371	0.14
442.728	0.15
443.085	0.14
443.442	0.12
443.799	0.13
444.156	0.13
444.513	0.12
444.869	0.14
445.226	0.14
445.583	0.14
445.939	0.13
446.296	0.13
446.652	0.13
447.009	0.13
447.365	0.11
447.722	0.12
448.078	0.13
448.434	0.12
448.791	0.12
449.147	0.12
449.503	0.12
449.859	0.11
450.215	0.11
450.571	0.11
450.928	0.11
451.284	0.11
451.64	0.12
451.995	0.11
452.351	0.1
452.707	0.11
453.063	0.11
453.419	0.11
453.775	0.1
454.13	0.11
454.486	0.1
454.842	0.1
455.197	0.1
455.553	0.09
455.908	0.09
456.264	0.1
456.619	0.08
456.975	0.1
457.33	0.08
457.685	0.09
458.04	0.08
458.396	0.08
458.751	0.09
459.106	0.09
459.461	0.08
459.816	0.08
460.171	0.08
460.526	0.07
460.881	0.08
461.236	0.07
461.591	0.07
461.946	0.08
462.301	0.07
462.655	0.07
463.01	0.07
463.365	0.06
463.719	0.06
464.074	0.06
464.428	0.07
464.783	0.05
465.137	0.05
465.492	0.05
465.846	0.06
466.201	0.05
466.555	0.06
466.909	0.05
467.263	0.06
467.618	0.05
467.972	0.05
468.326	0.04
468.68	0.04
469.034	0.05
469.388	0.04
469.742	0.04
470.096	0.04
470.45	0.04
470.804	0.02
471.157	0.03
471.511	0.03
471.865	0.03
472.218	0.04
472.572	0.03
472.926	0.02
473.279	0.02
473.633	0.03
473.986	0.03
474.34	0.03
474.693	0.02
475.046	0.02
475.4	0.01
475.753	0.02
476.106	0.02
476.459	0.02
476.812	0.02
477.165	0.01
477.519	0.02
477.872	0.02
478.224	0.01
478.577	0.02
478.93	0.02
479.283	0.03
479.636	0
479.989	0.02
480.341	-0
480.694	0.02
481.047	0.01
481.399	0.01
481.752	-0.01
482.104	0.01
482.457	0.01
482.809	0
483.162	0.01
483.514	0
483.866	0
484.219	0.01
484.571	0
484.923	0.01
485.275	0.01
485.627	0.01
485.979	-0
486.331	-0
486.683	-0
487.035	0.01
487.387	0.01
487.739	0.01
488.091	0.02
488.443	-0
488.794	-0.01
489.146	-0.01
489.498	-0
489.849	-0.02
490.201	-0.01
490.552	-0.01
490.904	-0.01
491.255	-0.01
491.607	0.01
491.958	0
492.309	0.01
492.661	0
493.012	-0
493.363	-0
493.714	-0.01
494.065	-0.01
494.416	0.01
494.767	-0
495.118	-0.01
495.469	-0
495.82	0.01
496.171	-0
496.522	-0.01
496.872	-0.01
497.223	-0
497.574	-0.02
497.924	0
498.275	0.02
498.626	-0
498.976	-0.01
499.327	-0
499.677	-0.01
500.027	-0
500.378	-0.02
500.728	-0.01
501.078	-0.01
501.428	-0.02
501.779	-0.01
502.129	-0.02
502.479	-0
502.829	-0.02
503.179	-0.02
503.529	-0.01
503.879	-0.01
504.229	0
504.578	-0.01
504.928	0
505.278	-0.02
505.628	-0.02
505.977	-0.03
506.327	-0.02
506.676	-0.02
507.026	-0.02
507.375	-0.03
507.725	-0.02
508.074	-0
508.424	-0.02
508.773	-0.02
509.122	-0.02
509.471	-0.02
509.82	-0.02
510.17	-0.02
510.519	-0.01
510.868	-0.03
511.217	-0.02
511.566	-0.02
511.915	-0.01
512.263	-0.01
512.612	-0
512.961	-0.02
513.31	-0.02
513.659	-0.01
514.007	-0.02
514.356	-0.02
514.704	-0.02
515.053	-0.02
515.401	-0.03
515.75	-0.02
516.098	-0.03
516.447	-0.01
516.795	-0.03
517.143	-0.02
517.491	-0.02
517.839	-0.02
518.188	-0.03
518.536	-0.03
518.884	-0.02
519.232	-0.03
519.58	-0.02
519.928	-0.01
520.275	-0.01
520.623	-0.02
520.971	-0.03
521.319	-0.01
521.666	-0.03
522.014	-0.03
522.362	-0.03
522.709	-0.03
523.057	-0.03
523.404	-0.01
523.752	-0.02
524.099	-0.02
524.446	-0.03
524.794	-0.04
525.141	-0.03
525.488	-0.02
525.835	-0.03
526.182	-0.02
526.529	-0.02
526.876	-0.02
527.223	-0.02
527.57	-0.02
527.917	-0.02
528.264	-0.03
528.611	-0.03
528.958	-0.02
529.304	-0.03
529.651	-0.03
529.998	-0.02
530.344	-0.04
530.691	-0.04
531.037	-0.03
531.384	-0.03
531.73	-0.03
532.076	-0.03
532.423	-0.04
532.769	-0.03
533.115	-0.02
533.461	-0.03
533.807	-0.02
534.154	-0.03
534.5	-0
534.846	-0.02
535.192	-0.03
535.537	-0.03
535.883	-0.04
536.229	-0.03
536.575	-0.03
536.921	-0.02
537.266	-0.03
537.612	-0.03
537.957	-0.01
538.303	-0.03
538.649	-0.03
538.994	-0.03
539.339	-0.03
539.685	-0.02
540.03	-0.03
540.375	-0.02
540.721	-0.03
541.066	-0.03
541.411	-0.03
541.756	-0.04
542.101	-0.01
542.446	-0.02
542.791	-0.02
543.136	-0.03
543.481	-0.03
543.825	-0.03
544.17	-0.03
544.515	-0.03
544.86	-0.03
545.204	-0.03
545.549	-0.03
545.893	-0.05
546.238	-0.03
546.582	-0.02
546.927	-0.04
547.271	-0.04
547.615	-0.03
547.96	-0.04
548.304	-0.03
548.648	-0.04
548.992	-0.02
549.336	-0.04
549.68	-0.02
550.024	-0.04
550.368	-0.03
550.712	-0.04
551.056	-0.04
551.4	-0.02
551.743	-0.03
552.087	-0.02
552.431	-0.03
552.774	-0.02
553.118	-0.03
553.462	-0.02
553.805	-0.03
554.148	-0.02
554.492	-0.03
554.835	-0.03
555.178	-0.03
555.522	-0.04
555.865	-0.02
556.208	-0.03
556.551	-0.04
556.894	-0.03
557.237	-0.03
557.58	-0.03
557.923	-0.04
558.266	-0.03
558.609	-0.02
558.952	-0.04
559.294	-0.02
559.637	-0.05
559.98	-0.04
560.322	-0.02
560.665	-0.04
561.007	-0.03
561.35	-0.05
561.692	-0.02
562.034	-0.03
562.377	-0.03
562.719	-0.03
563.061	-0.03
563.403	-0.02
563.745	-0.02
564.088	-0.03
564.43	-0.02
564.772	-0.03
565.113	-0.03
565.455	-0.03
565.797	-0.03
566.139	-0.04
566.481	-0.02
566.822	-0.04
567.164	-0.04
567.506	-0.02
567.847	-0.03
568.189	-0.03
568.53	-0.04
568.872	-0.03
569.213	-0.03
569.554	-0.03
569.895	-0.03
570.237	-0.03
570.578	-0.03
570.919	-0.03
571.26	-0.03
571.601	-0.03
571.942	-0.03
572.283	-0.03
572.624	-0.02
572.965	-0.02
573.306	-0.02
573.646	-0.03
573.987	-0.04
574.328	-0.03
574.668	-0.03
575.009	-0.04
575.349	-0.04
575.69	-0.03
576.03	-0.03
576.37	-0.03
576.711	-0.03
577.051	-0.03
577.391	-0.02
577.731	-0.04
578.072	-0.02
578.412	-0.02
578.752	-0.03
579.092	-0.04
579.431	-0.02
579.771	-0.03
580.111	-0.01
580.451	-0.02
580.791	-0.02
581.13	-0.02
581.47	-0.03
581.81	-0.03
582.149	-0.04
582.489	-0.04
582.828	-0.02
583.167	-0.03
583.507	-0.02
583.846	-0.03
584.185	-0.03
584.525	-0.02
584.864	-0.03
585.203	-0.02
585.542	-0.02
585.881	-0.03
586.22	-0.03
586.559	-0.03
586.898	-0.03
587.236	-0.03
587.575	-0.02
587.914	-0.03
588.252	-0.04
588.591	-0.03
588.93	-0.03
589.268	-0.03
589.607	-0.02
589.945	-0.02
590.283	-0.03
590.622	-0.02
590.96	-0.03
591.298	-0.03
591.636	-0.03
591.974	-0.04
592.313	-0.04
592.651	-0.03
592.989	-0.04
593.326	-0.04
593.664	-0.04
594.002	-0.04
594.34	-0.03
594.678	-0.04
595.015	-0.04
595.353	-0.03
595.691	-0.04
596.028	-0.04
596.366	-0.04
596.703	-0.04
597.04	-0.04
597.378	-0.02
597.715	-0.04
598.052	-0.04
598.389	-0.04
598.726	-0.04
599.064	-0.05
599.401	-0.04
599.738	-0.04
600.074	-0.04
600.411	-0.04
600.748	-0.03
601.085	-0.03
601.422	-0.04
601.758	-0.03
602.095	-0.02
602.432	-0.01
602.768	-0.03
603.105	-0.02
603.441	-0.03
603.777	-0.02
604.114	-0.03
604.45	-0.03
604.786	-0.02
605.122	-0.03
605.459	-0.04
605.795	-0.03
606.131	-0.02
606.467	-0.03
606.803	-0.03
607.139	-0.03
607.474	-0.03
607.81	-0.03
608.146	-0.04
608.482	-0.03
608.817	-0.04
609.153	-0.03
609.488	-0.04
609.824	-0.03
610.159	-0.05
610.495	-0.04
610.83	-0.03
611.165	-0.04
611.5	-0.04
611.836	-0.04
612.171	-0.04
612.506	-0.04
612.841	-0.04
613.176	-0.04
613.511	-0.04
613.845	-0.03
614.18	-0.03
614.515	-0.04
614.85	-0.03
615.184	-0.03
615.519	-0.02
615.854	-0.04
616.188	-0.03
616.523	-0.04
616.857	-0.02
617.191	-0.03
617.526	-0.03
617.86	-0.03
618.194	-0.03
618.528	-0.02
618.862	-0.05
619.196	-0.05
619.53	-0.03
619.864	-0.04
620.198	-0.03
620.532	-0.04
620.866	-0.05
621.2	-0.04
621.533	-0.03
621.867	-0.04
622.201	-0.03
622.534	-0.03
622.868	-0.03
623.201	-0.03
623.534	-0.03
623.868	-0.03
624.201	-0.04
624.534	-0.03
624.868	-0.04
625.201	-0.03
625.534	-0.03
625.867	-0.03
626.2	-0.03
626.533	-0.03
626.865	-0.04
627.198	-0.04
627.531	-0.04
627.864	-0.05
628.196	-0.03
628.529	-0.04
628.862	-0.03
629.194	-0.02
629.527	-0.05
629.859	-0.04
630.191	-0.03
630.524	-0.04
630.856	-0.04
631.188	-0.04
631.52	-0.03
631.852	-0.05
632.184	-0.05
632.516	-0.05
632.848	-0.05
633.18	-0.05
633.512	-0.05
633.844	-0.04
634.175	-0.05
634.507	-0.04
634.839	-0.05
635.17	-0.04
635.502	-0.03
635.833	-0.04
636.165	-0.05
636.496	-0.04
636.827	-0.05
637.159	-0.04
637.49	-0.04
637.821	-0.05
638.152	-0.04
638.483	-0.03
638.814	-0.03
639.145	-0.06
639.476	-0.04
639.807	-0.05
640.137	-0.04
640.468	-0.04
640.799	-0.05
641.129	-0.04
641.46	-0.05
641.791	-0.06
642.121	-0.06
642.451	-0.06
642.782	-0.06
643.112	-0.05
643.442	-0.05
643.773	-0.05
644.103	-0.05
644.433	-0.04
644.763	-0.04
645.093	-0.04
645.423	-0.05
645.753	-0.04
646.082	-0.06
646.412	-0.04
646.742	-0.04
647.072	-0.05
647.401	-0.04
647.731	-0.04
648.06	-0.03
648.39	-0.04
648.719	-0.04
649.048	-0.04
649.378	-0.04
649.707	-0.04
650.036	-0.04
650.365	-0.05
650.694	-0.04
651.023	-0.04
651.352	-0.04
651.681	-0.04
652.01	-0.03
652.339	-0.03
652.668	-0.03
